
# PMF between COMs of AGLU and COLR.
#
#               PMF
# z (nm)   (kJ/mol)   
  0.252  161.820854
  0.255  152.121368
  0.258  141.848803
  0.261  131.284573
  0.264  120.862070
  0.267  110.992510
  0.270  101.892858
  0.273   93.586733
  0.276   86.038345
  0.279   79.259463
  0.282   73.277708
  0.285   68.063706
  0.288   63.521590
  0.291   59.506226
  0.294   55.882069
  0.297   52.532452
  0.300   49.373428
  0.303   46.367416
  0.306   43.527937
  0.309   40.886679
  0.312   38.458703
  0.315   36.247132
  0.318   34.227382
  0.321   32.380669
  0.324   30.685278
  0.327   29.131288
  0.330   27.700179
  0.333   26.377220
  0.336   25.152757
  0.339   24.003479
  0.342   22.928408
  0.345   21.913780
  0.348   20.943926
  0.351   20.012008
  0.354   19.128834
  0.357   18.288751
  0.360   17.494197
  0.363   16.756625
  0.366   16.077911
  0.369   15.449577
  0.372   14.868915
  0.375   14.317097
  0.378   13.793291
  0.381   13.287908
  0.384   12.798566
  0.387   12.314768
  0.390   11.845163
  0.393   11.388096
  0.396   10.963567
  0.399   10.566592
  0.402   10.204826
  0.405    9.877020
  0.408    9.571830
  0.411    9.280773
  0.414    8.997978
  0.417    8.702461
  0.420    8.394476
  0.423    8.073595
  0.426    7.752240
  0.429    7.423041
  0.432    7.108454
  0.435    6.823636
  0.438    6.564401
  0.441    6.334598
  0.444    6.121705
  0.447    5.916941
  0.450    5.710735
  0.453    5.493956
  0.456    5.279276
  0.459    5.057184
  0.462    4.836430
  0.465    4.625354
  0.468    4.430150
  0.471    4.254663
  0.474    4.103053
  0.477    3.971888
  0.480    3.857042
  0.483    3.755406
  0.486    3.665280
  0.489    3.580357
  0.492    3.496767
  0.495    3.416064
  0.498    3.331215
  0.501    3.251439
  0.504    3.174085
  0.507    3.099191
  0.510    3.034072
  0.513    2.973860
  0.516    2.923358
  0.519    2.877487
  0.522    2.835345
  0.525    2.789695
  0.528    2.738888
  0.531    2.682550
  0.534    2.621934
  0.537    2.555821
  0.540    2.482007
  0.543    2.417876
  0.546    2.360565
  0.549    2.321126
  0.552    2.297418
  0.555    2.285030
  0.558    2.291303
  0.561    2.299762
  0.564    2.305133
  0.567    2.310840
  0.570    2.304603
  0.573    2.294574
  0.576    2.276158
  0.579    2.257571
  0.582    2.238554
  0.585    2.218161
  0.588    2.189404
  0.591    2.161581
  0.594    2.140560
  0.597    2.122877
  0.600    2.111824
  0.603    2.111514
  0.606    2.120775
  0.609    2.130385
  0.612    2.146662
  0.615    2.160608
  0.618    2.168670
  0.621    2.171758
  0.624    2.163844
  0.627    2.150401
  0.630    2.137001
  0.633    2.128008
  0.636    2.124688
  0.639    2.128094
  0.642    2.136768
  0.645    2.149594
  0.648    2.155813
  0.651    2.156932
  0.654    2.153981
  0.657    2.136141
  0.660    2.111590
  0.663    2.088197
  0.666    2.056385
  0.669    2.023072
  0.672    2.002245
  0.675    1.987009
  0.678    1.982051
  0.681    1.985280
  0.684    1.989407
  0.687    1.993342
  0.690    1.998347
  0.693    2.004220
  0.696    1.993273
  0.699    1.979467
  0.702    1.950418
  0.705    1.919936
  0.708    1.884713
  0.711    1.853334
  0.714    1.833784
  0.717    1.823751
  0.720    1.820676
  0.723    1.832107
  0.726    1.853420
  0.729    1.878135
  0.732    1.902532
  0.735    1.917169
  0.738    1.914485
  0.741    1.896010
  0.744    1.858202
  0.747    1.812520
  0.750    1.766711
  0.753    1.734022
  0.756    1.713210
  0.759    1.696714
  0.762    1.674998
  0.765    1.644042
  0.768    1.607869
  0.771    1.564871
  0.774    1.523595
  0.777    1.489230
  0.780    1.471072
  0.783    1.469421
  0.786    1.486407
  0.789    1.498081
  0.792    1.515396
  0.795    1.530288
  0.798    1.532434
  0.801    1.516652
  0.804    1.487212
  0.807    1.438418
  0.810    1.383271
  0.813    1.321225
  0.816    1.255771
  0.819    1.204561
  0.822    1.154743
  0.825    1.113355
  0.828    1.087200
  0.831    1.070205
  0.834    1.059494
  0.837    1.054979
  0.840    1.051384
  0.843    1.054577
  0.846    1.059434
  0.849    1.064322
  0.852    1.060194
  0.855    1.059252
  0.858    1.046903
  0.861    1.025585
  0.864    0.989339
  0.867    0.947899
  0.870    0.896953
  0.873    0.840966
  0.876    0.777389
  0.879    0.720710
  0.882    0.666953
  0.885    0.632887
  0.888    0.604902
  0.891    0.596008
  0.894    0.599729
  0.897    0.612836
  0.900    0.634788
  0.903    0.665274
  0.906    0.696890
  0.909    0.721517
  0.912    0.754744
  0.915    0.778739
  0.918    0.795193
  0.921    0.802571
  0.924    0.798957
  0.927    0.779674
  0.930    0.752562
  0.933    0.710588
  0.936    0.663598
  0.939    0.618684
  0.942    0.569955
  0.945    0.531766
  0.948    0.502486
  0.951    0.482035
  0.954    0.474065
  0.957    0.471505
  0.960    0.474309
  0.963    0.478177
  0.966    0.476162
  0.969    0.469398
  0.972    0.462632
  0.975    0.450547
  0.978    0.428785
  0.981    0.407729
  0.984    0.387872
  0.987    0.370858
  0.990    0.357715
  0.993    0.348863
  0.996    0.349769
  0.999    0.337330
  1.002    0.326138
  1.005    0.322276
  1.008    0.308648
  1.011    0.296814
  1.014    0.282153
  1.017    0.267353
  1.020    0.243252
  1.023    0.209105
  1.026    0.173266
  1.029    0.135621
  1.032    0.089508
  1.035    0.051401
  1.038    0.009477
  1.041   -0.023318
  1.044   -0.054682
  1.047   -0.074899
  1.050   -0.093162
  1.053   -0.106102
  1.056   -0.107650
  1.059   -0.102606
  1.062   -0.097535
  1.065   -0.081766
  1.068   -0.076216
  1.071   -0.072308
  1.074   -0.077823
  1.077   -0.085285
  1.080   -0.098656
  1.083   -0.114145
  1.086   -0.131126
  1.089   -0.150962
  1.092   -0.176332
  1.095   -0.202912
  1.098   -0.236229
  1.101   -0.265210
  1.104   -0.297146
  1.107   -0.316498
  1.110   -0.330856
  1.113   -0.336590
  1.116   -0.333017
  1.119   -0.316819
  1.122   -0.290675
  1.125   -0.257358
  1.128   -0.214688
  1.131   -0.169158
  1.134   -0.118972
  1.137   -0.070765
  1.140   -0.029466
  1.143    0.008308
  1.146    0.038520
  1.149    0.062208
  1.152    0.079612
  1.155    0.077245
  1.158    0.076668
  1.161    0.069203
  1.164    0.069887
  1.167    0.076377
  1.170    0.096173
  1.173    0.123664
  1.176    0.157987
  1.179    0.198265
  1.182    0.233004
  1.185    0.263453
  1.188    0.283903
  1.191    0.293151
  1.194    0.292781
  1.197    0.284454
