
# PMF between COMs of ATHR and AILE.
#
#               PMF
# z (nm)   (kJ/mol)   
  0.252  193.911392
  0.255  186.803408
  0.258  179.079094
  0.261  170.814152
  0.264  162.112471
  0.267  153.132693
  0.270  144.124116
  0.273  135.373288
  0.276  127.102626
  0.279  119.397326
  0.282  112.189647
  0.285  105.332932
  0.288   98.710561
  0.291   92.311655
  0.294   86.218275
  0.297   80.514784
  0.300   75.232051
  0.303   70.340616
  0.306   65.832620
  0.309   61.659504
  0.312   57.748390
  0.315   54.000048
  0.318   50.326098
  0.321   46.720593
  0.324   43.240103
  0.327   39.971209
  0.330   36.964279
  0.333   34.232687
  0.336   31.751173
  0.339   29.501147
  0.342   27.437039
  0.345   25.530137
  0.348   23.747114
  0.351   22.088825
  0.354   20.559445
  0.357   19.155945
  0.360   17.884856
  0.363   16.722756
  0.366   15.658061
  0.369   14.686701
  0.372   13.787387
  0.375   12.952931
  0.378   12.167582
  0.381   11.428789
  0.384   10.730714
  0.387   10.066188
  0.390    9.438813
  0.393    8.834995
  0.396    8.264421
  0.399    7.727212
  0.402    7.221003
  0.405    6.739942
  0.408    6.292642
  0.411    5.863239
  0.414    5.462060
  0.417    5.085190
  0.420    4.732090
  0.423    4.414763
  0.426    4.113055
  0.429    3.835140
  0.432    3.580562
  0.435    3.344061
  0.438    3.123162
  0.441    2.913220
  0.444    2.719901
  0.447    2.540046
  0.450    2.362081
  0.453    2.194060
  0.456    2.025143
  0.459    1.868503
  0.462    1.720805
  0.465    1.586253
  0.468    1.467112
  0.471    1.359135
  0.474    1.265968
  0.477    1.186924
  0.480    1.121641
  0.483    1.065907
  0.486    1.021713
  0.489    0.986046
  0.492    0.951557
  0.495    0.917437
  0.498    0.878152
  0.501    0.829768
  0.504    0.786651
  0.507    0.734499
  0.510    0.684312
  0.513    0.630837
  0.516    0.583414
  0.519    0.543706
  0.522    0.517849
  0.525    0.501597
  0.528    0.510413
  0.531    0.532425
  0.534    0.579072
  0.537    0.634941
  0.540    0.692066
  0.543    0.751917
  0.546    0.804790
  0.549    0.841538
  0.552    0.867637
  0.555    0.876254
  0.558    0.873147
  0.561    0.866529
  0.564    0.856675
  0.567    0.852310
  0.570    0.851355
  0.573    0.854658
  0.576    0.866640
  0.579    0.885421
  0.582    0.906618
  0.585    0.931004
  0.588    0.962395
  0.591    0.988635
  0.594    1.024684
  0.597    1.065967
  0.600    1.108086
  0.603    1.158584
  0.606    1.215228
  0.609    1.272270
  0.612    1.334475
  0.615    1.396504
  0.618    1.452972
  0.621    1.508003
  0.624    1.559171
  0.627    1.608930
  0.630    1.655592
  0.633    1.693142
  0.636    1.731076
  0.639    1.759436
  0.642    1.788161
  0.645    1.825580
  0.648    1.857305
  0.651    1.896570
  0.654    1.941398
  0.657    1.989682
  0.660    2.047486
  0.663    2.107569
  0.666    2.166410
  0.669    2.230154
  0.672    2.289722
  0.675    2.351987
  0.678    2.401805
  0.681    2.444749
  0.684    2.472585
  0.687    2.490932
  0.690    2.489849
  0.693    2.481824
  0.696    2.466260
  0.699    2.436871
  0.702    2.405116
  0.705    2.376617
  0.708    2.342095
  0.711    2.317421
  0.714    2.296686
  0.717    2.283781
  0.720    2.270812
  0.723    2.261958
  0.726    2.259782
  0.729    2.246738
  0.732    2.232364
  0.735    2.217380
  0.738    2.200742
  0.741    2.176378
  0.744    2.151783
  0.747    2.118658
  0.750    2.086044
  0.753    2.056907
  0.756    2.028636
  0.759    2.006736
  0.762    1.977301
  0.765    1.953861
  0.768    1.923791
  0.771    1.895909
  0.774    1.860099
  0.777    1.822501
  0.780    1.779839
  0.783    1.733831
  0.786    1.674894
  0.789    1.612833
  0.792    1.551699
  0.795    1.486155
  0.798    1.419024
  0.801    1.358538
  0.804    1.298048
  0.807    1.244532
  0.810    1.198617
  0.813    1.160482
  0.816    1.131090
  0.819    1.104190
  0.822    1.091047
  0.825    1.078502
  0.828    1.077658
  0.831    1.075872
  0.834    1.075158
  0.837    1.065540
  0.840    1.057987
  0.843    1.040212
  0.846    1.018547
  0.849    0.993041
  0.852    0.961577
  0.855    0.929735
  0.858    0.901877
  0.861    0.868686
  0.864    0.837641
  0.867    0.808862
  0.870    0.783618
  0.873    0.762159
  0.876    0.748992
  0.879    0.732346
  0.882    0.724328
  0.885    0.718242
  0.888    0.711916
  0.891    0.707172
  0.894    0.702520
  0.897    0.691593
  0.900    0.682320
  0.903    0.676610
  0.906    0.665333
  0.909    0.657075
  0.912    0.650922
  0.915    0.643382
  0.918    0.639744
  0.921    0.634413
  0.924    0.628989
  0.927    0.630269
  0.930    0.623772
  0.933    0.620204
  0.936    0.612522
  0.939    0.598021
  0.942    0.575313
  0.945    0.547249
  0.948    0.525053
  0.951    0.494470
  0.954    0.470427
  0.957    0.451460
  0.960    0.430645
  0.963    0.416025
  0.966    0.404925
  0.969    0.403577
  0.972    0.399762
  0.975    0.403956
  0.978    0.404351
  0.981    0.407199
  0.984    0.409249
  0.987    0.413702
  0.990    0.418089
  0.993    0.423827
  0.996    0.432037
  0.999    0.438853
  1.002    0.448556
  1.005    0.458523
  1.008    0.465997
  1.011    0.470646
  1.014    0.469835
  1.017    0.457632
  1.020    0.442686
  1.023    0.419786
  1.026    0.393655
  1.029    0.366042
  1.032    0.335001
  1.035    0.303792
  1.038    0.271242
  1.041    0.245117
  1.044    0.211680
  1.047    0.180954
  1.050    0.156235
  1.053    0.138916
  1.056    0.121110
  1.059    0.106457
  1.062    0.094029
  1.065    0.085929
  1.068    0.076181
  1.071    0.069491
  1.074    0.050973
  1.077    0.030926
  1.080    0.010306
  1.083   -0.008316
  1.086   -0.032399
  1.089   -0.058070
  1.092   -0.090282
  1.095   -0.120128
  1.098   -0.150201
  1.101   -0.176748
  1.104   -0.200565
  1.107   -0.222856
  1.110   -0.238408
  1.113   -0.241534
  1.116   -0.243709
  1.119   -0.231947
  1.122   -0.211833
  1.125   -0.175977
  1.128   -0.134576
  1.131   -0.086728
  1.134   -0.036457
  1.137    0.014226
  1.140    0.064139
  1.143    0.106002
  1.146    0.132963
  1.149    0.146394
  1.152    0.148268
  1.155    0.141403
  1.158    0.123646
  1.161    0.099563
  1.164    0.075947
  1.167    0.056837
  1.170    0.039412
  1.173    0.029151
  1.176    0.028114
  1.179    0.036148
  1.182    0.049646
  1.185    0.068994
  1.188    0.089656
  1.191    0.110928
  1.194    0.126671
  1.197    0.135904
