# PMF between COM of SHIE and TiO2 slab.
#
#              SHIE
# z (nm)   (kJ/mol)                
  0.1504  306.92542
  0.1536  306.48972
  0.1568  306.05162
  0.1600  305.60362
  0.1632  305.14122
  0.1664  304.65452
  0.1696  304.13552
  0.1728  303.57182
  0.1760  302.93832
  0.1792  302.21242
  0.1824  301.36422
  0.1856  300.35362
  0.1888  299.13032
  0.1920  297.63602
  0.1952  295.79742
  0.1984  293.53442
  0.2016  290.75662
  0.2048  287.36762
  0.2080  283.27452
  0.2112  278.38862
  0.2144  272.63992
  0.2176  265.98482
  0.2208  258.41022
  0.2240  249.93572
  0.2272  240.62872
  0.2304  230.59862
  0.2336  219.99722
  0.2368  209.02022
  0.2400  197.90422
  0.2432  186.92222
  0.2464  176.33122
  0.2496  166.33222
  0.2528  157.03522
  0.2560  148.47022
  0.2592  140.62222
  0.2624  133.40522
  0.2656  126.66522
  0.2688  120.20622
  0.2720  113.89322
  0.2752  107.69622
  0.2784  101.66222
  0.2816   95.81822
  0.2848   90.14322
  0.2880   84.68422
  0.2912   79.60122
  0.2944   74.87922
  0.2976   70.16122
  0.3008   65.14922
  0.3040   59.97322
  0.3072   55.04322
  0.3104   50.61022
  0.3136   46.50522
  0.3168   42.56522
  0.3200   39.07322
  0.3232   36.31822
  0.3264   34.20222
  0.3296   32.43222
  0.3328   30.87722
  0.3360   29.55122
  0.3392   28.51622
  0.3424   27.79322
  0.3456   27.33422
  0.3488   27.08122
  0.3520   26.96022
  0.3552   26.90822
  0.3584   26.86722
  0.3616   26.82322
  0.3648   26.82022
  0.3680   26.90222
  0.3712   27.04622
  0.3744   27.14122
  0.3776   27.08122
  0.3808   26.84522
  0.3840   26.46322
  0.3872   25.96522
  0.3904   25.34822
  0.3936   24.59022
  0.3968   23.67022
  0.4000   22.59622
  0.4032   21.42122
  0.4064   20.21222
  0.4096   19.03122
  0.4128   17.87822
  0.4160   16.71522
  0.4192   15.49622
  0.4224   14.24222
  0.4256   12.99822
  0.4288   11.80122
  0.4320   10.64422
  0.4352    9.50122
  0.4384    8.37322
  0.4416    7.28122
  0.4448    6.28022
  0.4480    5.38522
  0.4512    4.59922
  0.4544    3.88922
  0.4576    3.21422
  0.4608    2.56222
  0.4640    1.92722
  0.4672    1.32022
  0.4704    0.75522
  0.4736    0.22322
  0.4768   -0.29778
  0.4800   -0.80878
  0.4832   -1.31478
  0.4864   -1.81178
  0.4896   -2.28078
  0.4928   -2.70878
  0.4960   -3.08678
  0.4992   -3.41978
  0.5024   -3.70378
  0.5056   -3.94578
  0.5088   -4.14778
  0.5120   -4.31778
  0.5152   -4.45278
  0.5184   -4.55778
  0.5216   -4.64178
  0.5248   -4.70978
  0.5280   -4.74878
  0.5312   -4.77378
  0.5344   -4.78678
  0.5376   -4.78978
  0.5408   -4.79878
  0.5440   -4.81378
  0.5472   -4.81678
  0.5504   -4.80578
  0.5536   -4.77778
  0.5568   -4.74678
  0.5600   -4.73478
  0.5632   -4.75178
  0.5664   -4.78378
  0.5696   -4.81078
  0.5728   -4.81978
  0.5760   -4.81678
  0.5792   -4.81278
  0.5824   -4.82278
  0.5856   -4.84378
  0.5888   -4.86978
  0.5920   -4.89678
  0.5952   -4.91578
  0.5984   -4.91978
  0.6016   -4.91578
  0.6048   -4.89878
  0.6080   -4.88278
  0.6112   -4.86278
  0.6144   -4.84378
  0.6176   -4.82778
  0.6208   -4.81278
  0.6240   -4.79178
  0.6272   -4.76078
  0.6304   -4.70878
  0.6336   -4.63578
  0.6368   -4.54478
  0.6400   -4.45178
  0.6432   -4.36378
  0.6464   -4.28278
  0.6496   -4.19778
  0.6528   -4.08978
  0.6560   -3.95078
  0.6592   -3.78378
  0.6624   -3.61078
  0.6656   -3.45478
  0.6688   -3.32678
  0.6720   -3.22378
  0.6752   -3.12978
  0.6784   -3.03278
  0.6816   -2.92578
  0.6848   -2.80178
  0.6880   -2.66878
  0.6912   -2.53578
  0.6944   -2.40578
  0.6976   -2.28178
  0.7008   -2.16178
  0.7040   -2.05278
  0.7072   -1.94578
  0.7104   -1.83478
  0.7136   -1.71878
  0.7168   -1.59478
  0.7200   -1.47478
  0.7232   -1.36578
  0.7264   -1.27878
  0.7296   -1.21578
  0.7328   -1.17478
  0.7360   -1.14278
  0.7392   -1.09978
  0.7424   -1.02878
  0.7456   -0.91878
  0.7488   -0.78078
  0.7520   -0.65578
  0.7552   -0.57578
  0.7584   -0.54178
  0.7616   -0.53078
  0.7648   -0.50378
  0.7680   -0.45378
  0.7712   -0.39478
  0.7744   -0.34178
  0.7776   -0.29878
  0.7808   -0.26378
  0.7840   -0.23078
  0.7872   -0.21078
  0.7904   -0.19578
  0.7936   -0.17778
  0.7968   -0.14678
  0.8000   -0.10478
  0.8032   -0.05278
  0.8064   -0.00078
  0.8096    0.04022
  0.8128    0.07122
  0.8160    0.09522
  0.8192    0.11722
  0.8224    0.14922
  0.8256    0.18622
  0.8288    0.22422
  0.8320    0.26022
  0.8352    0.29022
  0.8384    0.31822
  0.8416    0.35422
  0.8448    0.39822
  0.8480    0.44522
  0.8512    0.48822
  0.8544    0.52422
  0.8576    0.55222
  0.8608    0.58122
  0.8640    0.61422
  0.8672    0.65422
  0.8704    0.69922
  0.8736    0.74622
  0.8768    0.78722
  0.8800    0.81022
  0.8832    0.81222
  0.8864    0.79222
  0.8896    0.76422
  0.8928    0.74722
  0.8960    0.75122
  0.8992    0.78422
  0.9024    0.83422
  0.9056    0.89422
  0.9088    0.94922
  0.9120    0.99422
  0.9152    1.01322
  0.9184    1.00822
  0.9216    0.98422
  0.9248    0.96222
  0.9280    0.94922
  0.9312    0.95022
  0.9344    0.95722
  0.9376    0.96922
  0.9408    0.97522
  0.9440    0.96722
  0.9472    0.95622
  0.9504    0.94622
  0.9536    0.94922
  0.9568    0.95522
  0.9600    0.96222
  0.9632    0.96522
  0.9664    0.96522
  0.9696    0.96322
  0.9728    0.95722
  0.9760    0.94822
  0.9792    0.94022
  0.9824    0.94522
  0.9856    0.97122
  0.9888    1.00322
  0.9920    1.03122
  0.9952    1.03722
  0.9984    1.03222
  1.0016    1.02022
  1.0048    1.01422
  1.0080    1.01822
  1.0112    1.03122
  1.0144    1.05422
  1.0176    1.08322
  1.0208    1.11322
  1.0240    1.13322
  1.0272    1.14222
  1.0304    1.13622
  1.0336    1.11722
  1.0368    1.09222
  1.0400    1.07522
  1.0432    1.06322
  1.0464    1.06522
  1.0496    1.06822
  1.0528    1.07422
  1.0560    1.07722
  1.0592    1.08222
  1.0624    1.08522
  1.0656    1.09922
  1.0688    1.12522
  1.0720    1.14622
  1.0752    1.14322
  1.0784    1.11022
  1.0816    1.07522
  1.0848    1.05722
  1.0880    1.06622
  1.0912    1.09222
  1.0944    1.11922
  1.0976    1.13622
  1.1008    1.14122
  1.1040    1.13222
  1.1072    1.11022
  1.1104    1.09022
  1.1136    1.08022
  1.1168    1.09222
  1.1200    1.11222
  1.1232    1.13122
  1.1264    1.13722
  1.1296    1.11922
  1.1328    1.08622
  1.1360    1.05022
  1.1392    1.03622
  1.1424    1.04722
  1.1456    1.06722
  1.1488    1.07922
  1.1520    1.07722
  1.1552    1.06922
  1.1584    1.05822
  1.1616    1.03022
  1.1648    0.98722
  1.1680    0.92622
  1.1712    0.86722
  1.1744    0.81922
  1.1776    0.79622
  1.1808    0.78722
  1.1840    0.78722
  1.1872    0.79222
  1.1904    0.79622
  1.1936    0.79622
  1.1968    0.79722
  1.2000    0.78622
  1.2032    0.76122
  1.2064    0.71922
  1.2096    0.66922
  1.2128    0.62322
  1.2160    0.58622
  1.2192    0.56722
  1.2224    0.56322
  1.2256    0.56022
  1.2288    0.55622
  1.2320    0.56322
  1.2352    0.59122
  1.2384    0.61222
  1.2416    0.59422
  1.2448    0.53322
  1.2480    0.46522
  1.2512    0.42522
  1.2544    0.42822
  1.2576    0.46222
  1.2608    0.49722
  1.2640    0.51122
  1.2672    0.49822
  1.2704    0.46122
  1.2736    0.42222
  1.2768    0.39422
  1.2800    0.39022
  1.2832    0.39622
  1.2864    0.40622
  1.2896    0.40222
  1.2928    0.37622
  1.2960    0.34622
  1.2992    0.32622
  1.3024    0.32122
  1.3056    0.33722
  1.3088    0.37122
  1.3120    0.40322
  1.3152    0.42622
  1.3184    0.43522
  1.3216    0.43722
  1.3248    0.42422
  1.3280    0.39722
  1.3312    0.35922
  1.3344    0.32222
  1.3376    0.29922
  1.3408    0.29122
  1.3440    0.29122
  1.3472    0.29622
  1.3504    0.29722
  1.3536    0.29922
  1.3568    0.30422
  1.3600    0.30822
  1.3632    0.32322
  1.3664    0.34322
  1.3696    0.35622
  1.3728    0.35622
  1.3760    0.33422
  1.3792    0.30522
  1.3824    0.28622
  1.3856    0.28122
  1.3888    0.29222
  1.3920    0.29422
  1.3952    0.27622
  1.3984    0.24622
  1.4016    0.21422
  1.4048    0.19022
  1.4080    0.18122
  1.4112    0.17522
  1.4144    0.15922
  1.4176    0.12622
  1.4208    0.07522
  1.4240    0.02622
  1.4272   -0.00678
  1.4304   -0.01478
  1.4336   -0.00778
  1.4368    0.01322
  1.4400    0.04622
  1.4432    0.07522
  1.4464    0.09122
  1.4496    0.08322
  1.4528    0.06022
  1.4560    0.02622
  1.4592    0.00022
  1.4624   -0.01578
  1.4656   -0.02578
  1.4688   -0.03178
  1.4720   -0.03778
  1.4752   -0.02178
  1.4784    0.03622
  1.4816    0.10822
  1.4848    0.14322
  1.4880    0.10922
  1.4912    0.01722
  1.4944   -0.08378
  1.4976   -0.13078
  1.5008   -0.10978
  1.5040   -0.05178
  1.5072    0.00522
  1.5104    0.02722
  1.5136    0.01022
  1.5168   -0.03878
  1.5200   -0.08178
  1.5232   -0.08278
  1.5264   -0.03678
  1.5296    0.01222
  1.5328    0.01222
  1.5360   -0.02878
  1.5392   -0.06978
  1.5424   -0.08078
  1.5456   -0.05678
  1.5488   -0.02478
  1.5520    0.01222
  1.5552    0.04622
  1.5584    0.08222
  1.5616    0.09922
  1.5648    0.10222
  1.5680    0.08222
  1.5712    0.04822
  1.5744    0.00822
  1.5776   -0.03678
  1.5808   -0.07478
  1.5840   -0.09278
  1.5872   -0.08278
  1.5904   -0.04678
  1.5936    0.00222
  1.5968    0.03122
  1.6000    0.01222
