# PMF between COM of ACYS and SiO2 slab.
#
#               PMF
# z (nm)   (kJ/mol)   
  0.005  213.711368
  0.010  204.095699
  0.015  194.697814
  0.020  185.694560
  0.025  177.137805
  0.030  168.993748
  0.035  161.302359
  0.040  154.251560
  0.045  147.999129
  0.050  142.408665
  0.055  137.157350
  0.060  131.987879
  0.065  126.789038
  0.070  121.556429
  0.075  116.495770
  0.080  111.906053
  0.085  107.729343
  0.090  103.622956
  0.095   99.471783
  0.100   95.368067
  0.105   91.404525
  0.110   87.641477
  0.115   84.069285
  0.120   80.629909
  0.125   77.306005
  0.130   74.128017
  0.135   71.092035
  0.140   68.149010
  0.145   65.300188
  0.150   62.542732
  0.155   59.830707
  0.160   57.069991
  0.165   54.169171
  0.170   51.164030
  0.175   48.192948
  0.180   45.298806
  0.185   42.358510
  0.190   39.236206
  0.195   35.912923
  0.200   32.535537
  0.205   29.337062
  0.210   26.528269
  0.215   24.167798
  0.220   22.094519
  0.225   20.106264
  0.230   18.134252
  0.235   16.290623
  0.240   14.680162
  0.245   13.301126
  0.250   12.052943
  0.255   10.875542
  0.260    9.798327
  0.265    8.866254
  0.270    8.073751
  0.275    7.352243
  0.280    6.639075
  0.285    5.917513
  0.290    5.177555
  0.295    4.446091
  0.300    3.741148
  0.305    3.064270
  0.310    2.397370
  0.315    1.732533
  0.320    1.066275
  0.325    0.459064
  0.330   -0.039720
  0.335   -0.425152
  0.340   -0.742086
  0.345   -1.041719
  0.350   -1.337507
  0.355   -1.603961
  0.360   -1.830282
  0.365   -2.019522
  0.370   -2.191330
  0.375   -2.367695
  0.380   -2.536614
  0.385   -2.694237
  0.390   -2.833298
  0.395   -2.952535
  0.400   -3.054319
  0.405   -3.147096
  0.410   -3.231166
  0.415   -3.317189
  0.420   -3.389206
  0.425   -3.427769
  0.430   -3.454644
  0.435   -3.468847
  0.440   -3.475786
  0.445   -3.468882
  0.450   -3.459970
  0.455   -3.453909
  0.460   -3.478418
  0.465   -3.520766
  0.470   -3.538450
  0.475   -3.455873
  0.480   -3.279176
  0.485   -3.100768
  0.490   -2.988648
  0.495   -2.940387
  0.500   -2.913312
  0.505   -2.835348
  0.510   -2.709350
  0.515   -2.544999
  0.520   -2.376853
  0.525   -2.250727
  0.530   -2.169258
  0.535   -2.116775
  0.540   -2.053775
  0.545   -1.961927
  0.550   -1.837585
  0.555   -1.681523
  0.560   -1.528971
  0.565   -1.393507
  0.570   -1.285322
  0.575   -1.188830
  0.580   -1.090791
  0.585   -0.986746
  0.590   -0.879705
  0.595   -0.782163
  0.600   -0.692361
  0.605   -0.609122
  0.610   -0.540397
  0.615   -0.480135
  0.620   -0.442918
  0.625   -0.427685
  0.630   -0.425213
  0.635   -0.435511
  0.640   -0.427181
  0.645   -0.401460
  0.650   -0.359428
  0.655   -0.327827
  0.660   -0.320196
  0.665   -0.335979
  0.670   -0.377161
  0.675   -0.431152
  0.680   -0.482707
  0.685   -0.518431
  0.690   -0.538140
  0.695   -0.541519
  0.700   -0.531398
  0.705   -0.510904
  0.710   -0.496485
  0.715   -0.490578
  0.720   -0.502614
  0.725   -0.524205
  0.730   -0.549291
  0.735   -0.554219
  0.740   -0.549844
  0.745   -0.542494
  0.750   -0.543900
  0.755   -0.559190
  0.760   -0.562664
  0.765   -0.566832
  0.770   -0.550014
  0.775   -0.507825
  0.780   -0.452867
  0.785   -0.397708
  0.790   -0.373445
  0.795   -0.371092
  0.800   -0.377228
  0.805   -0.368713
  0.810   -0.348646
  0.815   -0.332434
  0.820   -0.332954
  0.825   -0.359697
  0.830   -0.381264
  0.835   -0.368852
  0.840   -0.299055
  0.845   -0.188518
  0.850   -0.086623
  0.855   -0.027354
  0.860   -0.018638
  0.865   -0.058858
  0.870   -0.116144
  0.875   -0.158960
  0.880   -0.173049
  0.885   -0.143106
  0.890   -0.077193
  0.895   -0.009065
  0.900    0.047076
  0.905    0.065572
  0.910    0.044941
  0.915    0.002583
  0.920   -0.032425
  0.925   -0.040834
  0.930   -0.020254
  0.935    0.017556
  0.940    0.051633
  0.945    0.064516
  0.950    0.038839
  0.955   -0.013586
  0.960   -0.064447
  0.965   -0.084685
  0.970   -0.068025
  0.975   -0.027250
  0.980    0.010418
  0.985    0.020199
  0.990    0.004869
  0.995   -0.031537
  1.000   -0.070907
  1.005   -0.101479
  1.010   -0.108381
  1.015   -0.109147
  1.020   -0.108603
  1.025   -0.104837
  1.030   -0.120378
  1.035   -0.162754
  1.040   -0.205807
  1.045   -0.226957
  1.050   -0.211034
  1.055   -0.154253
  1.060   -0.090787
  1.065   -0.031679
  1.070   -0.005037
  1.075   -0.013505
  1.080   -0.052685
  1.085   -0.116441
  1.090   -0.174565
  1.095   -0.215513
  1.100   -0.220794
  1.105   -0.187868
  1.110   -0.126531
  1.115   -0.056305
  1.120   -0.005458
  1.125    0.025596
  1.130    0.020057
  1.135    0.003900
  1.140   -0.033779
  1.145   -0.074001
  1.150   -0.105068
  1.155   -0.129612
  1.160   -0.137013
  1.165   -0.131193
  1.170   -0.119651
  1.175   -0.105607
  1.180   -0.086127
  1.185   -0.051722
  1.190   -0.021749
  1.195    0.007123
  1.200    0.015732
  1.205    0.009282
  1.210   -0.006845
  1.215   -0.029291
  1.220   -0.059875
  1.225   -0.071891
  1.230   -0.068165
  1.235   -0.056014
  1.240   -0.047673
  1.245   -0.045582
  1.250   -0.042702
  1.255   -0.053997
  1.260   -0.065215
  1.265   -0.058269
  1.270   -0.025337
  1.275    0.028754
  1.280    0.087755
  1.285    0.131565
  1.290    0.145298
  1.295    0.120524
  1.300    0.073486
  1.305    0.001567
  1.310   -0.057071
  1.315   -0.098833
  1.320   -0.098152
  1.325   -0.050784
  1.330    0.032570
  1.335    0.116720
  1.340    0.174562
  1.345    0.172893
  1.350    0.106215
  1.355   -0.011353
  1.360   -0.119917
  1.365   -0.188509
  1.370   -0.169973
  1.375   -0.079575
  1.380    0.048316
  1.385    0.169243
  1.390    0.221133
  1.395    0.182077
  1.400    0.045778
  1.405   -0.117655
  1.410   -0.220743
  1.415   -0.199549
  1.420   -0.090513
  1.425    0.030736
  1.430    0.104188
  1.435    0.118207
  1.440    0.095004
  1.445    0.046477
  1.450   -0.005974
  1.455   -0.047659
  1.460   -0.069402
  1.465   -0.064407
  1.470   -0.045275
  1.475   -0.010954
  1.480    0.035261
  1.485    0.076812
  1.490    0.101211
  1.495    0.099642
  1.500    0.067374
