# PMF between COM of STHR and Gold slab.
#
#              STHR
# z (nm)   (kJ/mol)                
  0.1920  240.56046
  0.1952  228.58626
  0.1984  214.92146
  0.2016  199.61146
  0.2048  182.82846
  0.2080  164.89646
  0.2112  146.33646
  0.2144  127.85346
  0.2176  110.23946
  0.2208   94.43146
  0.2240   80.89346
  0.2272   69.22346
  0.2304   58.89246
  0.2336   49.92546
  0.2368   42.20346
  0.2400   34.89846
  0.2432   27.57446
  0.2464   20.71746
  0.2496   14.61346
  0.2528    9.12746
  0.2560    4.34546
  0.2592    0.09946
  0.2624   -3.64654
  0.2656   -6.88954
  0.2688   -9.80154
  0.2720  -12.45454
  0.2752  -14.86454
  0.2784  -17.14054
  0.2816  -19.43754
  0.2848  -21.77254
  0.2880  -24.04754
  0.2912  -26.16254
  0.2944  -28.03254
  0.2976  -29.60854
  0.3008  -30.84754
  0.3040  -31.76654
  0.3072  -32.43354
  0.3104  -32.92554
  0.3136  -33.27254
  0.3168  -33.43654
  0.3200  -33.36454
  0.3232  -33.07454
  0.3264  -32.66454
  0.3296  -32.19954
  0.3328  -31.69354
  0.3360  -31.08954
  0.3392  -30.34654
  0.3424  -29.54454
  0.3456  -28.85454
  0.3488  -28.33854
  0.3520  -27.90054
  0.3552  -27.46554
  0.3584  -27.05654
  0.3616  -26.74354
  0.3648  -26.53954
  0.3680  -26.36654
  0.3712  -26.12654
  0.3744  -25.80954
  0.3776  -25.43654
  0.3808  -25.05954
  0.3840  -24.64554
  0.3872  -24.15454
  0.3904  -23.56854
  0.3936  -22.97354
  0.3968  -22.44754
  0.4000  -22.01254
  0.4032  -21.62854
  0.4064  -21.25154
  0.4096  -20.84954
  0.4128  -20.39454
  0.4160  -19.87654
  0.4192  -19.32954
  0.4224  -18.77254
  0.4256  -18.19654
  0.4288  -17.55854
  0.4320  -16.80254
  0.4352  -15.94154
  0.4384  -15.02254
  0.4416  -14.10954
  0.4448  -13.25554
  0.4480  -12.50654
  0.4512  -11.85754
  0.4544  -11.27254
  0.4576  -10.70654
  0.4608  -10.16254
  0.4640   -9.67254
  0.4672   -9.29754
  0.4704   -9.05754
  0.4736   -8.88654
  0.4768   -8.69254
  0.4800   -8.46754
  0.4832   -8.30854
  0.4864   -8.29554
  0.4896   -8.37854
  0.4928   -8.44454
  0.4960   -8.45154
  0.4992   -8.40654
  0.5024   -8.34854
  0.5056   -8.29854
  0.5088   -8.27654
  0.5120   -8.25654
  0.5152   -8.17554
  0.5184   -7.99654
  0.5216   -7.70254
  0.5248   -7.32954
  0.5280   -6.93154
  0.5312   -6.53554
  0.5344   -6.14854
  0.5376   -5.72154
  0.5408   -5.22954
  0.5440   -4.68054
  0.5472   -4.11354
  0.5504   -3.58254
  0.5536   -3.12954
  0.5568   -2.78354
  0.5600   -2.55454
  0.5632   -2.43054
  0.5664   -2.38454
  0.5696   -2.38454
  0.5728   -2.40954
  0.5760   -2.45554
  0.5792   -2.52054
  0.5824   -2.62654
  0.5856   -2.78654
  0.5888   -3.01354
  0.5920   -3.28754
  0.5952   -3.58454
  0.5984   -3.86354
  0.6016   -4.11154
  0.6048   -4.33154
  0.6080   -4.51954
  0.6112   -4.68254
  0.6144   -4.83354
  0.6176   -4.97554
  0.6208   -5.11054
  0.6240   -5.25754
  0.6272   -5.40854
  0.6304   -5.54454
  0.6336   -5.64254
  0.6368   -5.67754
  0.6400   -5.64354
  0.6432   -5.56254
  0.6464   -5.47354
  0.6496   -5.42454
  0.6528   -5.42054
  0.6560   -5.44054
  0.6592   -5.46154
  0.6624   -5.46054
  0.6656   -5.42554
  0.6688   -5.35454
  0.6720   -5.26754
  0.6752   -5.17354
  0.6784   -5.07454
  0.6816   -4.96354
  0.6848   -4.85154
  0.6880   -4.73754
  0.6912   -4.62454
  0.6944   -4.52254
  0.6976   -4.42654
  0.7008   -4.33254
  0.7040   -4.23454
  0.7072   -4.12354
  0.7104   -3.99754
  0.7136   -3.85154
  0.7168   -3.69454
  0.7200   -3.52854
  0.7232   -3.36354
  0.7264   -3.21554
  0.7296   -3.09354
  0.7328   -2.97554
  0.7360   -2.85754
  0.7392   -2.71854
  0.7424   -2.56154
  0.7456   -2.41054
  0.7488   -2.28754
  0.7520   -2.20354
  0.7552   -2.14754
  0.7584   -2.06454
  0.7616   -1.94054
  0.7648   -1.80154
  0.7680   -1.66654
  0.7712   -1.54254
  0.7744   -1.41254
  0.7776   -1.28854
  0.7808   -1.16954
  0.7840   -1.05954
  0.7872   -0.96554
  0.7904   -0.87854
  0.7936   -0.78854
  0.7968   -0.69754
  0.8000   -0.59954
  0.8032   -0.49154
  0.8064   -0.38354
  0.8096   -0.27654
  0.8128   -0.17154
  0.8160   -0.06154
  0.8192    0.05046
  0.8224    0.15446
  0.8256    0.23946
  0.8288    0.29146
  0.8320    0.30346
  0.8352    0.28846
  0.8384    0.26546
  0.8416    0.25046
  0.8448    0.25246
  0.8480    0.26946
  0.8512    0.27746
  0.8544    0.26346
  0.8576    0.23246
  0.8608    0.18946
  0.8640    0.15246
  0.8672    0.12646
  0.8704    0.11446
  0.8736    0.10646
  0.8768    0.08246
  0.8800    0.04446
  0.8832   -0.00554
  0.8864   -0.04754
  0.8896   -0.07354
  0.8928   -0.08954
  0.8960   -0.11354
  0.8992   -0.16654
  0.9024   -0.23754
  0.9056   -0.31954
  0.9088   -0.39054
  0.9120   -0.44154
  0.9152   -0.46454
  0.9184   -0.45954
  0.9216   -0.44254
  0.9248   -0.42154
  0.9280   -0.39754
  0.9312   -0.37454
  0.9344   -0.36854
  0.9376   -0.37954
  0.9408   -0.40554
  0.9440   -0.45354
  0.9472   -0.50854
  0.9504   -0.56854
  0.9536   -0.61054
  0.9568   -0.62054
  0.9600   -0.61054
  0.9632   -0.57754
  0.9664   -0.53554
  0.9696   -0.48754
  0.9728   -0.45154
  0.9760   -0.42854
  0.9792   -0.42554
  0.9824   -0.43754
  0.9856   -0.45854
  0.9888   -0.48754
  0.9920   -0.50654
  0.9952   -0.50854
  0.9984   -0.49754
  1.0016   -0.47754
  1.0048   -0.45154
  1.0080   -0.42954
  1.0112   -0.41454
  1.0144   -0.40554
  1.0176   -0.40354
  1.0208   -0.39954
  1.0240   -0.38854
  1.0272   -0.37254
  1.0304   -0.33954
  1.0336   -0.30154
  1.0368   -0.26754
  1.0400   -0.25054
  1.0432   -0.24754
  1.0464   -0.24154
  1.0496   -0.22154
  1.0528   -0.18054
  1.0560   -0.11154
  1.0592   -0.03954
  1.0624    0.00746
  1.0656    0.01346
  1.0688   -0.02754
  1.0720   -0.09054
  1.0752   -0.13754
  1.0784   -0.13654
  1.0816   -0.06454
  1.0848    0.07346
  1.0880    0.24146
  1.0912    0.37746
  1.0944    0.42146
  1.0976    0.32346
  1.1008    0.12646
  1.1040   -0.03854
  1.1072   -0.07154
  1.1104    0.04746
  1.1136    0.21246
  1.1168    0.31546
  1.1200    0.32546
  1.1232    0.26146
  1.1264    0.15146
  1.1296    0.02346
  1.1328   -0.08654
  1.1360   -0.14954
  1.1392   -0.14954
  1.1424   -0.09054
  1.1456    0.00346
  1.1488    0.09546
  1.1520    0.16346
  1.1552    0.18246
  1.1584    0.16146
  1.1616    0.10046
  1.1648    0.02146
  1.1680   -0.05354
  1.1712   -0.10754
  1.1744   -0.12754
  1.1776   -0.11854
  1.1808   -0.08054
  1.1840   -0.02854
  1.1872    0.01246
  1.1904    0.02446
  1.1936   -0.00454
  1.1968   -0.07054
  1.2000   -0.15854
  1.2032   -0.23854
  1.2064   -0.28954
  1.2096   -0.29754
  1.2128   -0.26854
  1.2160   -0.21254
  1.2192   -0.15954
  1.2224   -0.12454
  1.2256   -0.13054
  1.2288   -0.17654
  1.2320   -0.26054
  1.2352   -0.35154
  1.2384   -0.40954
  1.2416   -0.41154
  1.2448   -0.36554
  1.2480   -0.29154
  1.2512   -0.23654
  1.2544   -0.22254
  1.2576   -0.24454
  1.2608   -0.28754
  1.2640   -0.34254
  1.2672   -0.38454
  1.2704   -0.41754
  1.2736   -0.44254
  1.2768   -0.45554
  1.2800   -0.44954
  1.2832   -0.41754
  1.2864   -0.37054
  1.2896   -0.30654
  1.2928   -0.27054
  1.2960   -0.29554
  1.2992   -0.37054
  1.3024   -0.44254
  1.3056   -0.43954
  1.3088   -0.36454
  1.3120   -0.27954
  1.3152   -0.22354
  1.3184   -0.20254
  1.3216   -0.19454
  1.3248   -0.19054
  1.3280   -0.20354
  1.3312   -0.24154
  1.3344   -0.27854
  1.3376   -0.29854
  1.3408   -0.29554
  1.3440   -0.27354
  1.3472   -0.23954
  1.3504   -0.21454
  1.3536   -0.20754
  1.3568   -0.21354
  1.3600   -0.23254
  1.3632   -0.25954
  1.3664   -0.29154
  1.3696   -0.33154
  1.3728   -0.38354
  1.3760   -0.43754
  1.3792   -0.47754
  1.3824   -0.49254
  1.3856   -0.47254
  1.3888   -0.40754
  1.3920   -0.33554
  1.3952   -0.26654
  1.3984   -0.22754
  1.4016   -0.21054
  1.4048   -0.21154
  1.4080   -0.21454
  1.4112   -0.21954
  1.4144   -0.21554
  1.4176   -0.20654
  1.4208   -0.19654
  1.4240   -0.17854
  1.4272   -0.16054
  1.4304   -0.13954
  1.4336   -0.12354
  1.4368   -0.11654
  1.4400   -0.10854
  1.4432   -0.11154
  1.4464   -0.11654
  1.4496   -0.12454
  1.4528   -0.12854
  1.4560   -0.12354
  1.4592   -0.11054
  1.4624   -0.08654
  1.4656   -0.05154
  1.4688   -0.01354
  1.4720    0.03546
  1.4752    0.07046
  1.4784    0.07346
  1.4816    0.03946
  1.4848   -0.00154
  1.4880   -0.02854
  1.4912   -0.02454
  1.4944    0.01146
  1.4976    0.06446
  1.5008    0.10446
  1.5040    0.09546
  1.5072    0.05446
  1.5104   -0.01454
  1.5136   -0.06454
  1.5168   -0.06954
  1.5200   -0.02354
  1.5232    0.05146
  1.5264    0.10646
  1.5296    0.11946
  1.5328    0.08446
  1.5360    0.03146
  1.5392   -0.00854
  1.5424   -0.01854
  1.5456    0.00146
  1.5488    0.03146
  1.5520    0.05446
  1.5552    0.04946
  1.5584    0.02746
  1.5616    0.00346
  1.5648   -0.01254
  1.5680   -0.03054
  1.5712   -0.03654
  1.5744   -0.03954
  1.5776   -0.02954
  1.5808   -0.01054
  1.5840    0.01846
  1.5872    0.05846
  1.5904    0.08546
  1.5936    0.08046
  1.5968    0.01546
  1.6000   -0.08854
