# PMF between COM of SASN and Gold slab.
# 
# SASN
# z (nm)   (kJ/mol)
  0.169600,248.998320
  0.172800,241.645420
  0.176000,233.320220
  0.179200,223.940720
  0.182400,213.414420
  0.185600,201.674420
  0.188800,188.693420
  0.192000,174.561420
  0.195200,159.557420
  0.198400,144.150420
  0.201600,128.837420
  0.204800,114.009420
  0.208000, 99.895420
  0.211200, 86.608420
  0.214400, 74.281420
  0.217600, 63.106420
  0.220800, 53.140420
  0.224000, 44.094420
  0.227200, 35.529420
  0.230400, 27.189420
  0.233600, 19.086420
  0.236800, 11.389420
  0.240000,  4.298420
  0.243200, -2.056580
  0.246400, -7.804580
  0.249600,-13.295580
  0.252800,-18.639580
  0.256000,-23.416580
  0.259200,-27.293580
  0.262400,-30.494580
  0.265600,-33.382580
  0.268800,-36.047580
  0.272000,-38.377580
  0.275200,-40.313580
  0.278400,-41.895580
  0.281600,-43.118580
  0.284800,-43.948580
  0.288000,-44.446580
  0.291200,-44.734580
  0.294400,-44.835580
  0.297600,-44.722580
  0.300800,-44.392580
  0.304000,-43.931580
  0.307200,-43.397580
  0.310400,-42.801580
  0.313600,-42.115580
  0.316800,-41.325580
  0.320000,-40.461580
  0.323200,-39.557580
  0.326400,-38.658580
  0.329600,-37.817580
  0.332800,-37.084580
  0.336000,-36.512580
  0.339200,-36.097580
  0.342400,-35.786580
  0.345600,-35.488580
  0.348800,-35.107580
  0.352000,-34.644580
  0.355200,-34.174580
  0.358400,-33.730580
  0.361600,-33.260580
  0.364800,-32.681580
  0.368000,-31.963580
  0.371200,-31.168580
  0.374400,-30.381580
  0.377600,-29.655580
  0.380800,-28.999580
  0.384000,-28.349580
  0.387200,-27.691580
  0.390400,-27.072580
  0.393600,-26.564580
  0.396800,-26.204580
  0.400000,-25.962580
  0.403200,-25.748580
  0.406400,-25.456580
  0.409600,-25.050580
  0.412800,-24.551580
  0.416000,-23.991580
  0.419200,-23.378580
  0.422400,-22.707580
  0.425600,-22.023580
  0.428800,-21.347580
  0.432000,-20.689580
  0.435200,-20.050580
  0.438400,-19.463580
  0.441600,-19.013580
  0.444800,-18.741580
  0.448000,-18.622580
  0.451200,-18.544580
  0.454400,-18.421580
  0.457600,-18.239580
  0.460800,-18.009580
  0.464000,-17.727580
  0.467200,-17.384580
  0.470400,-16.977580
  0.473600,-16.520580
  0.476800,-16.000580
  0.480000,-15.400580
  0.483200,-14.757580
  0.486400,-14.155580
  0.489600,-13.635580
  0.492800,-13.127580
  0.496000,-12.552580
  0.499200,-11.895580
  0.502400,-11.200580
  0.505600,-10.499580
  0.508800, -9.811580
  0.512000, -9.127580
  0.515200, -8.469580
  0.518400, -7.849580
  0.521600, -7.289580
  0.524800, -6.750580
  0.528000, -6.191580
  0.531200, -5.656580
  0.534400, -5.207580
  0.537600, -4.877580
  0.540800, -4.646580
  0.544000, -4.448580
  0.547200, -4.229580
  0.550400, -3.983580
  0.553600, -3.746580
  0.556800, -3.559580
  0.560000, -3.411580
  0.563200, -3.297580
  0.566400, -3.213580
  0.569600, -3.175580
  0.572800, -3.187580
  0.576000, -3.248580
  0.579200, -3.350580
  0.582400, -3.494580
  0.585600, -3.686580
  0.588800, -3.934580
  0.592000, -4.239580
  0.595200, -4.587580
  0.598400, -4.934580
  0.601600, -5.237580
  0.604800, -5.454580
  0.608000, -5.604580
  0.611200, -5.712580
  0.614400, -5.815580
  0.617600, -5.924580
  0.620800, -6.045580
  0.624000, -6.156580
  0.627200, -6.234580
  0.630400, -6.263580
  0.633600, -6.239580
  0.636800, -6.181580
  0.640000, -6.107580
  0.643200, -6.044580
  0.646400, -6.011580
  0.649600, -5.995580
  0.652800, -5.976580
  0.656000, -5.938580
  0.659200, -5.887580
  0.662400, -5.821580
  0.665600, -5.753580
  0.668800, -5.687580
  0.672000, -5.613580
  0.675200, -5.533580
  0.678400, -5.426580
  0.681600, -5.289580
  0.684800, -5.123580
  0.688000, -4.938580
  0.691200, -4.767580
  0.694400, -4.627580
  0.697600, -4.536580
  0.700800, -4.495580
  0.704000, -4.459580
  0.707200, -4.396580
  0.710400, -4.289580
  0.713600, -4.134580
  0.716800, -3.961580
  0.720000, -3.796580
  0.723200, -3.645580
  0.726400, -3.518580
  0.729600, -3.415580
  0.732800, -3.318580
  0.736000, -3.235580
  0.739200, -3.144580
  0.742400, -3.034580
  0.745600, -2.891580
  0.748800, -2.702580
  0.752000, -2.483580
  0.755200, -2.258580
  0.758400, -2.047580
  0.761600, -1.879580
  0.764800, -1.759580
  0.768000, -1.692580
  0.771200, -1.652580
  0.774400, -1.587580
  0.777600, -1.433580
  0.780800, -1.192580
  0.784000, -0.923580
  0.787200, -0.701580
  0.790400, -0.539580
  0.793600, -0.421580
  0.796800, -0.319580
  0.800000, -0.210580
  0.803200, -0.094580
  0.806400,  0.033420
  0.809600,  0.185420
  0.812800,  0.340420
  0.816000,  0.490420
  0.819200,  0.628420
  0.822400,  0.745420
  0.825600,  0.844420
  0.828800,  0.923420
  0.832000,  0.989420
  0.835200,  1.052420
  0.838400,  1.108420
  0.841600,  1.158420
  0.844800,  1.188420
  0.848000,  1.200420
  0.851200,  1.181420
  0.854400,  1.139420
  0.857600,  1.080420
  0.860800,  1.027420
  0.864000,  0.995420
  0.867200,  0.973420
  0.870400,  0.959420
  0.873600,  0.940420
  0.876800,  0.911420
  0.880000,  0.874420
  0.883200,  0.814420
  0.886400,  0.725420
  0.889600,  0.619420
  0.892800,  0.511420
  0.896000,  0.429420
  0.899200,  0.384420
  0.902400,  0.364420
  0.905600,  0.359420
  0.908800,  0.336420
  0.912000,  0.288420
  0.915200,  0.216420
  0.918400,  0.136420
  0.921600,  0.070420
  0.924800,  0.030420
  0.928000,  0.031420
  0.931200,  0.059420
  0.934400,  0.093420
  0.937600,  0.114420
  0.940800,  0.102420
  0.944000,  0.050420
  0.947200, -0.030580
  0.950400, -0.129580
  0.953600, -0.214580
  0.956800, -0.273580
  0.960000, -0.296580
  0.963200, -0.288580
  0.966400, -0.262580
  0.969600, -0.228580
  0.972800, -0.200580
  0.976000, -0.188580
  0.979200, -0.184580
  0.982400, -0.191580
  0.985600, -0.205580
  0.988800, -0.216580
  0.992000, -0.216580
  0.995200, -0.214580
  0.998400, -0.207580
  1.001600, -0.194580
  1.004800, -0.192580
  1.008000, -0.193580
  1.011200, -0.195580
  1.014400, -0.184580
  1.017600, -0.148580
  1.020800, -0.098580
  1.024000, -0.043580
  1.027200, -0.005580
  1.030400,  0.004420
  1.033600, -0.007580
  1.036800, -0.036580
  1.040000, -0.063580
  1.043200, -0.063580
  1.046400, -0.023580
  1.049600,  0.044420
  1.052800,  0.130420
  1.056000,  0.201420
  1.059200,  0.251420
  1.062400,  0.286420
  1.065600,  0.324420
  1.068800,  0.363420
  1.072000,  0.390420
  1.075200,  0.391420
  1.078400,  0.369420
  1.081600,  0.339420
  1.084800,  0.331420
  1.088000,  0.337420
  1.091200,  0.362420
  1.094400,  0.394420
  1.097600,  0.425420
  1.100800,  0.468420
  1.104000,  0.508420
  1.107200,  0.544420
  1.110400,  0.562420
  1.113600,  0.578420
  1.116800,  0.596420
  1.120000,  0.623420
  1.123200,  0.653420
  1.126400,  0.685420
  1.129600,  0.696420
  1.132800,  0.689420
  1.136000,  0.665420
  1.139200,  0.648420
  1.142400,  0.651420
  1.145600,  0.667420
  1.148800,  0.694420
  1.152000,  0.716420
  1.155200,  0.714420
  1.158400,  0.684420
  1.161600,  0.652420
  1.164800,  0.638420
  1.168000,  0.649420
  1.171200,  0.650420
  1.174400,  0.632420
  1.177600,  0.605420
  1.180800,  0.581420
  1.184000,  0.589420
  1.187200,  0.627420
  1.190400,  0.665420
  1.193600,  0.678420
  1.196800,  0.634420
  1.200000,  0.534420
  1.203200,  0.403420
  1.206400,  0.279420
  1.209600,  0.200420
  1.212800,  0.188420
  1.216000,  0.241420
  1.219200,  0.326420
  1.222400,  0.397420
  1.225600,  0.429420
  1.228800,  0.416420
  1.232000,  0.375420
  1.235200,  0.333420
  1.238400,  0.303420
  1.241600,  0.283420
  1.244800,  0.278420
  1.248000,  0.286420
  1.251200,  0.304420
  1.254400,  0.338420
  1.257600,  0.377420
  1.260800,  0.412420
  1.264000,  0.433420
  1.267200,  0.440420
  1.270400,  0.423420
  1.273600,  0.383420
  1.276800,  0.318420
  1.280000,  0.246420
  1.283200,  0.203420
  1.286400,  0.192420
  1.289600,  0.213420
  1.292800,  0.261420
  1.296000,  0.326420
  1.299200,  0.368420
  1.302400,  0.376420
  1.305600,  0.353420
  1.308800,  0.308420
  1.312000,  0.255420
  1.315200,  0.219420
  1.318400,  0.206420
  1.321600,  0.224420
  1.324800,  0.263420
  1.328000,  0.303420
  1.331200,  0.315420
  1.334400,  0.296420
  1.337600,  0.257420
  1.340800,  0.216420
  1.344000,  0.192420
  1.347200,  0.186420
  1.350400,  0.193420
  1.353600,  0.204420
  1.356800,  0.225420
  1.360000,  0.260420
  1.363200,  0.308420
  1.366400,  0.343420
  1.369600,  0.355420
  1.372800,  0.330420
  1.376000,  0.278420
  1.379200,  0.216420
  1.382400,  0.166420
  1.385600,  0.154420
  1.388800,  0.190420
  1.392000,  0.248420
  1.395200,  0.292420
  1.398400,  0.306420
  1.401600,  0.283420
  1.404800,  0.238420
  1.408000,  0.183420
  1.411200,  0.132420
  1.414400,  0.105420
  1.417600,  0.110420
  1.420800,  0.132420
  1.424000,  0.162420
  1.427200,  0.185420
  1.430400,  0.208420
  1.433600,  0.246420
  1.436800,  0.289420
  1.440000,  0.329420
  1.443200,  0.335420
  1.446400,  0.297420
  1.449600,  0.225420
  1.452800,  0.147420
  1.456000,  0.083420
  1.459200,  0.053420
  1.462400,  0.076420
  1.465600,  0.144420
  1.468800,  0.212420
  1.472000,  0.230420
  1.475200,  0.164420
  1.478400,  0.028420
  1.481600, -0.099580
  1.484800, -0.154580
  1.488000, -0.121580
  1.491200, -0.033580
  1.494400,  0.056420
  1.497600,  0.094420
  1.500800,  0.092420
  1.504000,  0.073420
  1.507200,  0.055420
  1.510400,  0.055420
  1.513600,  0.054420
  1.516800,  0.046420
  1.520000,  0.018420
  1.523200, -0.024580
  1.526400, -0.061580
  1.529600, -0.084580
  1.532800, -0.102580
  1.536000, -0.119580
  1.539200, -0.128580
  1.542400, -0.126580
  1.545600, -0.101580
  1.548800, -0.067580
  1.552000, -0.044580
  1.555200, -0.061580
  1.558400, -0.107580
  1.561600, -0.156580
  1.564800, -0.184580
  1.568000, -0.175580
  1.571200, -0.131580
  1.574400, -0.076580
  1.577600, -0.026580
  1.580800, -0.007580
  1.584000, -0.026580
  1.587200, -0.071580
  1.590400, -0.098580
  1.593600, -0.092580
  1.596800, -0.051580
  1.600000, -0.005580
