# PMF between COM of SASP and Gold slab.
# 
# SASP
# z (nm)   (kJ/mol)
  0.179200,246.037020
  0.182400,237.730420
  0.185600,228.476820
  0.188800,218.222920
  0.192000,206.930920
  0.195200,194.607920
  0.198400,181.355920
  0.201600,167.418920
  0.204800,153.195920
  0.208000,139.212920
  0.211200,125.892920
  0.214400,113.366920
  0.217600,101.693920
  0.220800, 90.897920
  0.224000, 81.116920
  0.227200, 72.685920
  0.230400, 65.651920
  0.233600, 59.371920
  0.236800, 53.033920
  0.240000, 46.542920
  0.243200, 40.484920
  0.246400, 35.194920
  0.249600, 30.306920
  0.252800, 25.484920
  0.256000, 20.956920
  0.259200, 16.955920
  0.262400, 13.400920
  0.265600, 10.155920
  0.268800,  7.292920
  0.272000,  4.816920
  0.275200,  2.456920
  0.278400,  0.187920
  0.281600, -1.851080
  0.284800, -3.569080
  0.288000, -5.030080
  0.291200, -6.406080
  0.294400, -7.803080
  0.297600, -9.179080
  0.300800,-10.423080
  0.304000,-11.499080
  0.307200,-12.441080
  0.310400,-13.274080
  0.313600,-13.946080
  0.316800,-14.402080
  0.320000,-14.654080
  0.323200,-14.778080
  0.326400,-14.836080
  0.329600,-14.843080
  0.332800,-14.792080
  0.336000,-14.694080
  0.339200,-14.549080
  0.342400,-14.359080
  0.345600,-14.152080
  0.348800,-13.909080
  0.352000,-13.590080
  0.355200,-13.178080
  0.358400,-12.683080
  0.361600,-12.126080
  0.364800,-11.521080
  0.368000,-10.826080
  0.371200,-10.018080
  0.374400, -9.157080
  0.377600, -8.299080
  0.380800, -7.437080
  0.384000, -6.567080
  0.387200, -5.717080
  0.390400, -4.964080
  0.393600, -4.370080
  0.396800, -3.941080
  0.400000, -3.590080
  0.403200, -3.205080
  0.406400, -2.756080
  0.409600, -2.294080
  0.412800, -1.847080
  0.416000, -1.376080
  0.419200, -0.831080
  0.422400, -0.244080
  0.425600,  0.239920
  0.428800,  0.526920
  0.432000,  0.629920
  0.435200,  0.638920
  0.438400,  0.586920
  0.441600,  0.441920
  0.444800,  0.142920
  0.448000, -0.316080
  0.451200, -0.849080
  0.454400, -1.301080
  0.457600, -1.576080
  0.460800, -1.691080
  0.464000, -1.755080
  0.467200, -1.832080
  0.470400, -1.863080
  0.473600, -1.763080
  0.476800, -1.481080
  0.480000, -1.055080
  0.483200, -0.559080
  0.486400, -0.036080
  0.489600,  0.507920
  0.492800,  1.077920
  0.496000,  1.646920
  0.499200,  2.162920
  0.502400,  2.618920
  0.505600,  3.028920
  0.508800,  3.439920
  0.512000,  3.840920
  0.515200,  4.151920
  0.518400,  4.301920
  0.521600,  4.314920
  0.524800,  4.302920
  0.528000,  4.341920
  0.531200,  4.411920
  0.534400,  4.425920
  0.537600,  4.306920
  0.540800,  4.041920
  0.544000,  3.722920
  0.547200,  3.449920
  0.550400,  3.255920
  0.553600,  3.076920
  0.556800,  2.812920
  0.560000,  2.407920
  0.563200,  1.850920
  0.566400,  1.188920
  0.569600,  0.503920
  0.572800, -0.143080
  0.576000, -0.715080
  0.579200, -1.202080
  0.582400, -1.646080
  0.585600, -2.080080
  0.588800, -2.504080
  0.592000, -2.920080
  0.595200, -3.278080
  0.598400, -3.544080
  0.601600, -3.720080
  0.604800, -3.822080
  0.608000, -3.888080
  0.611200, -3.938080
  0.614400, -3.986080
  0.617600, -4.030080
  0.620800, -4.059080
  0.624000, -4.071080
  0.627200, -4.052080
  0.630400, -4.016080
  0.633600, -3.963080
  0.636800, -3.904080
  0.640000, -3.850080
  0.643200, -3.808080
  0.646400, -3.773080
  0.649600, -3.756080
  0.652800, -3.767080
  0.656000, -3.796080
  0.659200, -3.836080
  0.662400, -3.853080
  0.665600, -3.839080
  0.668800, -3.783080
  0.672000, -3.696080
  0.675200, -3.607080
  0.678400, -3.538080
  0.681600, -3.492080
  0.684800, -3.456080
  0.688000, -3.412080
  0.691200, -3.348080
  0.694400, -3.266080
  0.697600, -3.160080
  0.700800, -3.041080
  0.704000, -2.913080
  0.707200, -2.765080
  0.710400, -2.604080
  0.713600, -2.443080
  0.716800, -2.300080
  0.720000, -2.181080
  0.723200, -2.086080
  0.726400, -1.979080
  0.729600, -1.836080
  0.732800, -1.642080
  0.736000, -1.403080
  0.739200, -1.146080
  0.742400, -0.900080
  0.745600, -0.686080
  0.748800, -0.513080
  0.752000, -0.362080
  0.755200, -0.220080
  0.758400, -0.070080
  0.761600,  0.087920
  0.764800,  0.254920
  0.768000,  0.422920
  0.771200,  0.587920
  0.774400,  0.755920
  0.777600,  0.907920
  0.780800,  1.038920
  0.784000,  1.144920
  0.787200,  1.232920
  0.790400,  1.328920
  0.793600,  1.433920
  0.796800,  1.540920
  0.800000,  1.641920
  0.803200,  1.709920
  0.806400,  1.731920
  0.809600,  1.720920
  0.812800,  1.696920
  0.816000,  1.693920
  0.819200,  1.712920
  0.822400,  1.742920
  0.825600,  1.741920
  0.828800,  1.689920
  0.832000,  1.596920
  0.835200,  1.497920
  0.838400,  1.424920
  0.841600,  1.389920
  0.844800,  1.385920
  0.848000,  1.384920
  0.851200,  1.360920
  0.854400,  1.285920
  0.857600,  1.167920
  0.860800,  1.022920
  0.864000,  0.888920
  0.867200,  0.804920
  0.870400,  0.783920
  0.873600,  0.813920
  0.876800,  0.863920
  0.880000,  0.882920
  0.883200,  0.856920
  0.886400,  0.786920
  0.889600,  0.684920
  0.892800,  0.583920
  0.896000,  0.507920
  0.899200,  0.484920
  0.902400,  0.495920
  0.905600,  0.515920
  0.908800,  0.509920
  0.912000,  0.461920
  0.915200,  0.383920
  0.918400,  0.318920
  0.921600,  0.278920
  0.924800,  0.273920
  0.928000,  0.286920
  0.931200,  0.301920
  0.934400,  0.302920
  0.937600,  0.286920
  0.940800,  0.262920
  0.944000,  0.243920
  0.947200,  0.234920
  0.950400,  0.240920
  0.953600,  0.263920
  0.956800,  0.273920
  0.960000,  0.267920
  0.963200,  0.241920
  0.966400,  0.204920
  0.969600,  0.190920
  0.972800,  0.197920
  0.976000,  0.223920
  0.979200,  0.261920
  0.982400,  0.291920
  0.985600,  0.317920
  0.988800,  0.332920
  0.992000,  0.347920
  0.995200,  0.375920
  0.998400,  0.406920
  1.001600,  0.440920
  1.004800,  0.464920
  1.008000,  0.481920
  1.011200,  0.506920
  1.014400,  0.540920
  1.017600,  0.588920
  1.020800,  0.643920
  1.024000,  0.681920
  1.027200,  0.699920
  1.030400,  0.688920
  1.033600,  0.664920
  1.036800,  0.642920
  1.040000,  0.634920
  1.043200,  0.641920
  1.046400,  0.676920
  1.049600,  0.722920
  1.052800,  0.754920
  1.056000,  0.754920
  1.059200,  0.726920
  1.062400,  0.686920
  1.065600,  0.673920
  1.068800,  0.687920
  1.072000,  0.719920
  1.075200,  0.746920
  1.078400,  0.744920
  1.081600,  0.716920
  1.084800,  0.676920
  1.088000,  0.653920
  1.091200,  0.659920
  1.094400,  0.686920
  1.097600,  0.726920
  1.100800,  0.763920
  1.104000,  0.788920
  1.107200,  0.800920
  1.110400,  0.799920
  1.113600,  0.787920
  1.116800,  0.770920
  1.120000,  0.751920
  1.123200,  0.739920
  1.126400,  0.744920
  1.129600,  0.766920
  1.132800,  0.784920
  1.136000,  0.792920
  1.139200,  0.779920
  1.142400,  0.751920
  1.145600,  0.719920
  1.148800,  0.690920
  1.152000,  0.680920
  1.155200,  0.687920
  1.158400,  0.704920
  1.161600,  0.704920
  1.164800,  0.684920
  1.168000,  0.650920
  1.171200,  0.629920
  1.174400,  0.627920
  1.177600,  0.638920
  1.180800,  0.638920
  1.184000,  0.604920
  1.187200,  0.534920
  1.190400,  0.468920
  1.193600,  0.443920
  1.196800,  0.466920
  1.200000,  0.514920
  1.203200,  0.543920
  1.206400,  0.525920
  1.209600,  0.472920
  1.212800,  0.423920
  1.216000,  0.403920
  1.219200,  0.408920
  1.222400,  0.403920
  1.225600,  0.391920
  1.228800,  0.383920
  1.232000,  0.380920
  1.235200,  0.375920
  1.238400,  0.345920
  1.241600,  0.297920
  1.244800,  0.241920
  1.248000,  0.208920
  1.251200,  0.205920
  1.254400,  0.229920
  1.257600,  0.258920
  1.260800,  0.271920
  1.264000,  0.264920
  1.267200,  0.237920
  1.270400,  0.207920
  1.273600,  0.196920
  1.276800,  0.210920
  1.280000,  0.240920
  1.283200,  0.269920
  1.286400,  0.267920
  1.289600,  0.252920
  1.292800,  0.219920
  1.296000,  0.193920
  1.299200,  0.176920
  1.302400,  0.174920
  1.305600,  0.184920
  1.308800,  0.188920
  1.312000,  0.178920
  1.315200,  0.143920
  1.318400,  0.099920
  1.321600,  0.056920
  1.324800,  0.039920
  1.328000,  0.037920
  1.331200,  0.037920
  1.334400,  0.024920
  1.337600, -0.001080
  1.340800, -0.030080
  1.344000, -0.062080
  1.347200, -0.086080
  1.350400, -0.100080
  1.353600, -0.105080
  1.356800, -0.117080
  1.360000, -0.140080
  1.363200, -0.169080
  1.366400, -0.173080
  1.369600, -0.161080
  1.372800, -0.148080
  1.376000, -0.170080
  1.379200, -0.225080
  1.382400, -0.288080
  1.385600, -0.327080
  1.388800, -0.326080
  1.392000, -0.294080
  1.395200, -0.264080
  1.398400, -0.256080
  1.401600, -0.264080
  1.404800, -0.269080
  1.408000, -0.266080
  1.411200, -0.240080
  1.414400, -0.213080
  1.417600, -0.185080
  1.420800, -0.177080
  1.424000, -0.182080
  1.427200, -0.199080
  1.430400, -0.207080
  1.433600, -0.204080
  1.436800, -0.176080
  1.440000, -0.138080
  1.443200, -0.098080
  1.446400, -0.076080
  1.449600, -0.075080
  1.452800, -0.080080
  1.456000, -0.060080
  1.459200, -0.014080
  1.462400,  0.036920
  1.465600,  0.052920
  1.468800,  0.030920
  1.472000,  0.001920
  1.475200, -0.014080
  1.478400, -0.003080
  1.481600,  0.024920
  1.484800,  0.064920
  1.488000,  0.099920
  1.491200,  0.127920
  1.494400,  0.140920
  1.497600,  0.133920
  1.500800,  0.112920
  1.504000,  0.082920
  1.507200,  0.057920
  1.510400,  0.058920
  1.513600,  0.075920
  1.516800,  0.084920
  1.520000,  0.078920
  1.523200,  0.055920
  1.526400,  0.043920
  1.529600,  0.055920
  1.532800,  0.079920
  1.536000,  0.077920
  1.539200,  0.047920
  1.542400,  0.006920
  1.545600, -0.011080
  1.548800,  0.025920
  1.552000,  0.073920
  1.555200,  0.069920
  1.558400, -0.011080
  1.561600, -0.113080
  1.564800, -0.165080
  1.568000, -0.133080
  1.571200, -0.065080
  1.574400, -0.026080
  1.577600, -0.044080
  1.580800, -0.096080
  1.584000, -0.133080
  1.587200, -0.148080
  1.590400, -0.144080
  1.593600, -0.129080
  1.596800, -0.094080
  1.600000, -0.072080
