# #Autogenerated fromHID,HIE,HIP at pH: 7.4
# #h[nm],U[kJ/mol]
  0.000000, 35.625533
  0.001000, 35.508624
  0.002000, 35.391714
  0.003000, 35.274495
  0.004000, 35.157276
  0.005000, 35.041762
  0.006000, 34.926249
  0.007000, 34.814127
  0.008000, 34.702006
  0.009000, 34.592485
  0.010000, 34.482965
  0.011000, 34.373578
  0.012000, 34.264191
  0.013000, 34.154988
  0.014000, 34.045785
  0.015000, 33.937012
  0.016000, 33.828239
  0.017000, 33.723141
  0.018000, 33.618044
  0.019000, 33.516336
  0.020000, 33.414627
  0.021000, 33.314868
  0.022000, 33.215109
  0.023000, 33.117851
  0.024000, 33.020594
  0.025000, 32.922257
  0.026000, 32.823919
  0.027000, 32.727917
  0.028000, 32.631914
  0.029000, 32.535398
  0.030000, 32.438883
  0.031000, 32.342471
  0.032000, 32.246060
  0.033000, 32.156285
  0.034000, 32.066510
  0.035000, 31.973784
  0.036000, 31.881059
  0.037000, 31.790461
  0.038000, 31.699862
  0.039000, 31.609471
  0.040000, 31.519080
  0.041000, 31.429337
  0.042000, 31.339593
  0.043000, 31.250402
  0.044000, 31.161211
  0.045000, 31.072344
  0.046000, 30.983477
  0.047000, 30.892875
  0.048000, 30.802273
  0.049000, 30.717309
  0.050000, 30.632345
  0.051000, 30.547936
  0.052000, 30.463526
  0.053000, 30.379370
  0.054000, 30.295213
  0.055000, 30.211859
  0.056000, 30.128506
  0.057000, 30.045975
  0.058000, 29.963444
  0.059000, 29.881962
  0.060000, 29.800480
  0.061000, 29.717859
  0.062000, 29.635237
  0.063000, 29.553272
  0.064000, 29.471306
  0.065000, 29.390640
  0.066000, 29.309974
  0.067000, 29.228554
  0.068000, 29.147134
  0.069000, 29.067220
  0.070000, 28.987305
  0.071000, 28.908739
  0.072000, 28.830174
  0.073000, 28.752376
  0.074000, 28.674578
  0.075000, 28.598165
  0.076000, 28.521752
  0.077000, 28.446765
  0.078000, 28.371779
  0.079000, 28.295837
  0.080000, 28.219896
  0.081000, 28.144003
  0.082000, 28.068111
  0.083000, 27.991260
  0.084000, 27.914410
  0.085000, 27.838993
  0.086000, 27.763576
  0.087000, 27.688433
  0.088000, 27.613289
  0.089000, 27.542267
  0.090000, 27.471244
  0.091000, 27.400604
  0.092000, 27.329964
  0.093000, 27.259304
  0.094000, 27.188644
  0.095000, 27.117448
  0.096000, 27.046253
  0.097000, 26.977431
  0.098000, 26.908608
  0.099000, 26.839949
  0.100000, 26.771290
  0.101000, 26.702944
  0.102000, 26.634598
  0.103000, 26.562741
  0.104000, 26.490884
  0.105000, 26.419987
  0.106000, 26.349089
  0.107000, 26.276605
  0.108000, 26.204121
  0.109000, 26.130580
  0.110000, 26.057039
  0.111000, 25.981011
  0.112000, 25.904984
  0.113000, 25.827904
  0.114000, 25.750825
  0.115000, 25.670707
  0.116000, 25.590590
  0.117000, 25.507474
  0.118000, 25.424357
  0.119000, 25.338339
  0.120000, 25.252320
  0.121000, 25.161612
  0.122000, 25.070905
  0.123000, 24.974922
  0.124000, 24.878938
  0.125000, 24.778209
  0.126000, 24.677480
  0.127000, 24.570815
  0.128000, 24.464151
  0.129000, 24.354250
  0.130000, 24.244349
  0.131000, 24.130384
  0.132000, 24.016419
  0.133000, 23.895318
  0.134000, 23.774218
  0.135000, 23.647477
  0.136000, 23.520735
  0.137000, 23.387678
  0.138000, 23.254621
  0.139000, 23.116606
  0.140000, 22.978592
  0.141000, 22.836957
  0.142000, 22.695322
  0.143000, 22.550041
  0.144000, 22.404760
  0.145000, 22.253698
  0.146000, 22.102637
  0.147000, 21.945488
  0.148000, 21.788340
  0.149000, 21.624687
  0.150000, 21.461033
  0.151000, 21.291430
  0.152000, 21.121827
  0.153000, 20.943779
  0.154000, 20.765731
  0.155000, 20.581888
  0.156000, 20.398045
  0.157000, 20.210258
  0.158000, 20.022471
  0.159000, 19.830724
  0.160000, 19.638976
  0.161000, 19.444553
  0.162000, 19.250130
  0.163000, 19.053408
  0.164000, 18.856685
  0.165000, 18.662055
  0.166000, 18.467424
  0.167000, 18.275739
  0.168000, 18.084054
  0.169000, 17.897690
  0.170000, 17.711325
  0.171000, 17.530925
  0.172000, 17.350526
  0.173000, 17.177146
  0.174000, 17.003765
  0.175000, 16.834911
  0.176000, 16.666058
  0.177000, 16.507753
  0.178000, 16.349447
  0.179000, 16.198558
  0.180000, 16.047668
  0.181000, 15.906405
  0.182000, 15.765142
  0.183000, 15.627812
  0.184000, 15.490482
  0.185000, 15.359406
  0.186000, 15.228330
  0.187000, 15.102761
  0.188000, 14.977192
  0.189000, 14.860299
  0.190000, 14.743407
  0.191000, 14.631763
  0.192000, 14.520119
  0.193000, 14.413731
  0.194000, 14.307343
  0.195000, 14.206063
  0.196000, 14.104783
  0.197000, 14.007028
  0.198000, 13.909272
  0.199000, 13.814345
  0.200000, 13.719418
  0.201000, 13.630174
  0.202000, 13.540931
  0.203000, 13.455186
  0.204000, 13.369441
  0.205000, 13.287698
  0.206000, 13.205955
  0.207000, 13.122400
  0.208000, 13.038845
  0.209000, 12.960217
  0.210000, 12.881588
  0.211000, 12.803926
  0.212000, 12.726263
  0.213000, 12.651982
  0.214000, 12.577702
  0.215000, 12.507595
  0.216000, 12.437489
  0.217000, 12.366819
  0.218000, 12.296150
  0.219000, 12.226780
  0.220000, 12.157411
  0.221000, 12.092465
  0.222000, 12.027518
  0.223000, 11.963181
  0.224000, 11.898843
  0.225000, 11.836145
  0.226000, 11.773448
  0.227000, 11.711535
  0.228000, 11.649621
  0.229000, 11.589166
  0.230000, 11.528710
  0.231000, 11.469834
  0.232000, 11.410957
  0.233000, 11.351723
  0.234000, 11.292489
  0.235000, 11.234767
  0.236000, 11.177045
  0.237000, 11.120361
  0.238000, 11.063676
  0.239000, 11.006154
  0.240000, 10.948631
  0.241000, 10.893501
  0.242000, 10.838371
  0.243000, 10.784644
  0.244000, 10.730917
  0.245000, 10.676734
  0.246000, 10.622550
  0.247000, 10.566500
  0.248000, 10.510450
  0.249000, 10.454091
  0.250000, 10.397732
  0.251000, 10.341972
  0.252000, 10.286211
  0.253000, 10.229509
  0.254000, 10.172806
  0.255000, 10.117772
  0.256000, 10.062739
  0.257000, 10.005524
  0.258000,  9.948310
  0.259000,  9.890484
  0.260000,  9.832658
  0.261000,  9.773925
  0.262000,  9.715192
  0.263000,  9.654690
  0.264000,  9.594188
  0.265000,  9.531281
  0.266000,  9.468373
  0.267000,  9.403158
  0.268000,  9.337942
  0.269000,  9.272192
  0.270000,  9.206441
  0.271000,  9.138566
  0.272000,  9.070691
  0.273000,  8.998668
  0.274000,  8.926645
  0.275000,  8.849287
  0.276000,  8.771929
  0.277000,  8.689681
  0.278000,  8.607434
  0.279000,  8.521659
  0.280000,  8.435884
  0.281000,  8.348507
  0.282000,  8.261129
  0.283000,  8.168134
  0.284000,  8.075139
  0.285000,  7.976572
  0.286000,  7.878005
  0.287000,  7.775083
  0.288000,  7.672161
  0.289000,  7.565995
  0.290000,  7.459830
  0.291000,  7.349138
  0.292000,  7.238447
  0.293000,  7.122741
  0.294000,  7.007034
  0.295000,  6.889236
  0.296000,  6.771438
  0.297000,  6.650573
  0.298000,  6.529709
  0.299000,  6.407864
  0.300000,  6.286020
  0.301000,  6.161486
  0.302000,  6.036952
  0.303000,  5.912109
  0.304000,  5.787266
  0.305000,  5.658718
  0.306000,  5.530171
  0.307000,  5.400865
  0.308000,  5.271559
  0.309000,  5.143603
  0.310000,  5.015648
  0.311000,  4.890755
  0.312000,  4.765863
  0.313000,  4.638723
  0.314000,  4.511583
  0.315000,  4.384934
  0.316000,  4.258285
  0.317000,  4.131023
  0.318000,  4.003760
  0.319000,  3.877692
  0.320000,  3.751624
  0.321000,  3.627231
  0.322000,  3.502837
  0.323000,  3.379607
  0.324000,  3.256376
  0.325000,  3.134365
  0.326000,  3.012355
  0.327000,  2.891683
  0.328000,  2.771010
  0.329000,  2.651888
  0.330000,  2.532766
  0.331000,  2.415874
  0.332000,  2.298983
  0.333000,  2.184215
  0.334000,  2.069448
  0.335000,  1.956409
  0.336000,  1.843370
  0.337000,  1.731001
  0.338000,  1.618632
  0.339000,  1.509621
  0.340000,  1.400610
  0.341000,  1.294426
  0.342000,  1.188242
  0.343000,  1.084222
  0.344000,  0.980203
  0.345000,  0.877799
  0.346000,  0.775395
  0.347000,  0.674967
  0.348000,  0.574538
  0.349000,  0.476532
  0.350000,  0.378527
  0.351000,  0.282856
  0.352000,  0.187185
  0.353000,  0.095111
  0.354000,  0.003038
  0.355000, -0.086911
  0.356000, -0.176860
  0.357000, -0.264274
  0.358000, -0.351687
  0.359000, -0.437510
  0.360000, -0.523334
  0.361000, -0.606299
  0.362000, -0.689264
  0.363000, -0.770580
  0.364000, -0.851896
  0.365000, -0.932122
  0.366000, -1.012348
  0.367000, -1.088765
  0.368000, -1.165182
  0.369000, -1.240349
  0.370000, -1.315516
  0.371000, -1.387326
  0.372000, -1.459135
  0.373000, -1.528612
  0.374000, -1.598089
  0.375000, -1.666745
  0.376000, -1.735400
  0.377000, -1.802999
  0.378000, -1.870598
  0.379000, -1.935552
  0.380000, -2.000505
  0.381000, -2.062723
  0.382000, -2.124941
  0.383000, -2.184818
  0.384000, -2.244696
  0.385000, -2.302588
  0.386000, -2.360480
  0.387000, -2.416458
  0.388000, -2.472436
  0.389000, -2.526472
  0.390000, -2.580508
  0.391000, -2.632821
  0.392000, -2.685133
  0.393000, -2.735362
  0.394000, -2.785591
  0.395000, -2.834641
  0.396000, -2.883690
  0.397000, -2.932347
  0.398000, -2.981003
  0.399000, -3.026129
  0.400000, -3.071255
  0.401000, -3.115014
  0.402000, -3.158772
  0.403000, -3.201253
  0.404000, -3.243733
  0.405000, -3.284002
  0.406000, -3.324272
  0.407000, -3.361972
  0.408000, -3.399672
  0.409000, -3.434428
  0.410000, -3.469185
  0.411000, -3.502631
  0.412000, -3.536078
  0.413000, -3.567718
  0.414000, -3.599358
  0.415000, -3.630208
  0.416000, -3.661058
  0.417000, -3.689407
  0.418000, -3.717755
  0.419000, -3.744582
  0.420000, -3.771408
  0.421000, -3.796584
  0.422000, -3.821759
  0.423000, -3.845608
  0.424000, -3.869458
  0.425000, -3.890940
  0.426000, -3.912423
  0.427000, -3.933365
  0.428000, -3.954308
  0.429000, -3.974621
  0.430000, -3.994935
  0.431000, -4.011991
  0.432000, -4.029047
  0.433000, -4.044535
  0.434000, -4.060023
  0.435000, -4.074162
  0.436000, -4.088302
  0.437000, -4.101995
  0.438000, -4.115688
  0.439000, -4.128126
  0.440000, -4.140564
  0.441000, -4.151098
  0.442000, -4.161632
  0.443000, -4.171469
  0.444000, -4.181305
  0.445000, -4.190467
  0.446000, -4.199628
  0.447000, -4.207274
  0.448000, -4.214920
  0.449000, -4.222023
  0.450000, -4.229125
  0.451000, -4.234642
  0.452000, -4.240160
  0.453000, -4.244887
  0.454000, -4.249614
  0.455000, -4.254948
  0.456000, -4.260281
  0.457000, -4.265588
  0.458000, -4.270895
  0.459000, -4.275737
  0.460000, -4.280579
  0.461000, -4.284849
  0.462000, -4.289120
  0.463000, -4.291992
  0.464000, -4.294863
  0.465000, -4.294622
  0.466000, -4.294380
  0.467000, -4.294640
  0.468000, -4.294900
  0.469000, -4.295082
  0.470000, -4.295264
  0.471000, -4.295807
  0.472000, -4.296350
  0.473000, -4.295354
  0.474000, -4.294358
  0.475000, -4.291556
  0.476000, -4.288754
  0.477000, -4.284240
  0.478000, -4.279727
  0.479000, -4.275332
  0.480000, -4.270937
  0.481000, -4.265515
  0.482000, -4.260093
  0.483000, -4.254673
  0.484000, -4.249253
  0.485000, -4.242804
  0.486000, -4.236354
  0.487000, -4.230637
  0.488000, -4.224920
  0.489000, -4.218493
  0.490000, -4.212065
  0.491000, -4.203519
  0.492000, -4.194973
  0.493000, -4.185407
  0.494000, -4.175840
  0.495000, -4.165722
  0.496000, -4.155604
  0.497000, -4.146288
  0.498000, -4.136972
  0.499000, -4.128692
  0.500000, -4.120412
  0.501000, -4.111485
  0.502000, -4.102558
  0.503000, -4.093246
  0.504000, -4.083934
  0.505000, -4.073821
  0.506000, -4.063708
  0.507000, -4.052569
  0.508000, -4.041431
  0.509000, -4.031300
  0.510000, -4.021169
  0.511000, -4.010878
  0.512000, -4.000588
  0.513000, -3.988484
  0.514000, -3.976381
  0.515000, -3.964095
  0.516000, -3.951809
  0.517000, -3.940433
  0.518000, -3.929058
  0.519000, -3.917562
  0.520000, -3.906066
  0.521000, -3.895171
  0.522000, -3.884275
  0.523000, -3.871744
  0.524000, -3.859214
  0.525000, -3.846676
  0.526000, -3.834138
  0.527000, -3.821210
  0.528000, -3.808283
  0.529000, -3.793515
  0.530000, -3.778746
  0.531000, -3.764216
  0.532000, -3.749686
  0.533000, -3.735450
  0.534000, -3.721214
  0.535000, -3.706190
  0.536000, -3.691166
  0.537000, -3.676721
  0.538000, -3.662275
  0.539000, -3.647108
  0.540000, -3.631940
  0.541000, -3.617909
  0.542000, -3.603878
  0.543000, -3.589488
  0.544000, -3.575098
  0.545000, -3.560787
  0.546000, -3.546476
  0.547000, -3.532795
  0.548000, -3.519115
  0.549000, -3.504215
  0.550000, -3.489316
  0.551000, -3.475154
  0.552000, -3.460991
  0.553000, -3.447382
  0.554000, -3.433772
  0.555000, -3.419300
  0.556000, -3.404827
  0.557000, -3.389385
  0.558000, -3.373944
  0.559000, -3.358468
  0.560000, -3.342991
  0.561000, -3.326538
  0.562000, -3.310084
  0.563000, -3.293556
  0.564000, -3.277028
  0.565000, -3.260089
  0.566000, -3.243151
  0.567000, -3.227523
  0.568000, -3.211895
  0.569000, -3.195752
  0.570000, -3.179609
  0.571000, -3.163573
  0.572000, -3.147538
  0.573000, -3.131485
  0.574000, -3.115432
  0.575000, -3.098696
  0.576000, -3.081960
  0.577000, -3.064160
  0.578000, -3.046360
  0.579000, -3.028981
  0.580000, -3.011601
  0.581000, -2.994991
  0.582000, -2.978382
  0.583000, -2.960991
  0.584000, -2.943601
  0.585000, -2.926680
  0.586000, -2.909759
  0.587000, -2.893020
  0.588000, -2.876282
  0.589000, -2.859441
  0.590000, -2.842599
  0.591000, -2.825181
  0.592000, -2.807763
  0.593000, -2.791329
  0.594000, -2.774894
  0.595000, -2.758215
  0.596000, -2.741536
  0.597000, -2.724924
  0.598000, -2.708312
  0.599000, -2.692168
  0.600000, -2.676023
  0.601000, -2.660273
  0.602000, -2.644523
  0.603000, -2.628297
  0.604000, -2.612071
  0.605000, -2.595144
  0.606000, -2.578218
  0.607000, -2.562405
  0.608000, -2.546592
  0.609000, -2.531638
  0.610000, -2.516684
  0.611000, -2.503454
  0.612000, -2.490223
  0.613000, -2.476587
  0.614000, -2.462951
  0.615000, -2.448609
  0.616000, -2.434267
  0.617000, -2.419511
  0.618000, -2.404754
  0.619000, -2.390990
  0.620000, -2.377225
  0.621000, -2.364112
  0.622000, -2.350999
  0.623000, -2.337187
  0.624000, -2.323376
  0.625000, -2.309795
  0.626000, -2.296214
  0.627000, -2.283592
  0.628000, -2.270970
  0.629000, -2.259090
  0.630000, -2.247209
  0.631000, -2.234346
  0.632000, -2.221484
  0.633000, -2.208143
  0.634000, -2.194802
  0.635000, -2.181548
  0.636000, -2.168295
  0.637000, -2.155309
  0.638000, -2.142324
  0.639000, -2.130619
  0.640000, -2.118914
  0.641000, -2.107908
  0.642000, -2.096901
  0.643000, -2.086198
  0.644000, -2.075494
  0.645000, -2.064117
  0.646000, -2.052740
  0.647000, -2.040840
  0.648000, -2.028940
  0.649000, -2.018860
  0.650000, -2.008780
  0.651000, -1.999510
  0.652000, -1.990240
  0.653000, -1.981096
  0.654000, -1.971952
  0.655000, -1.963285
  0.656000, -1.954618
  0.657000, -1.946413
  0.658000, -1.938208
  0.659000, -1.931154
  0.660000, -1.924100
  0.661000, -1.917214
  0.662000, -1.910328
  0.663000, -1.904003
  0.664000, -1.897677
  0.665000, -1.891066
  0.666000, -1.884454
  0.667000, -1.877405
  0.668000, -1.870357
  0.669000, -1.864009
  0.670000, -1.857661
  0.671000, -1.852362
  0.672000, -1.847062
  0.673000, -1.842265
  0.674000, -1.837468
  0.675000, -1.832056
  0.676000, -1.826645
  0.677000, -1.821926
  0.678000, -1.817207
  0.679000, -1.812618
  0.680000, -1.808029
  0.681000, -1.804949
  0.682000, -1.801870
  0.683000, -1.798590
  0.684000, -1.795311
  0.685000, -1.792150
  0.686000, -1.788990
  0.687000, -1.785366
  0.688000, -1.781741
  0.689000, -1.777683
  0.690000, -1.773626
  0.691000, -1.770468
  0.692000, -1.767309
  0.693000, -1.764712
  0.694000, -1.762115
  0.695000, -1.759433
  0.696000, -1.756750
  0.697000, -1.754123
  0.698000, -1.751496
  0.699000, -1.749645
  0.700000, -1.747795
  0.701000, -1.745388
  0.702000, -1.742981
  0.703000, -1.740771
  0.704000, -1.738562
  0.705000, -1.736647
  0.706000, -1.734732
  0.707000, -1.732762
  0.708000, -1.730793
  0.709000, -1.729990
  0.710000, -1.729187
  0.711000, -1.729374
  0.712000, -1.729562
  0.713000, -1.730116
  0.714000, -1.730669
  0.715000, -1.730448
  0.716000, -1.730227
  0.717000, -1.729487
  0.718000, -1.728747
  0.719000, -1.728738
  0.720000, -1.728728
  0.721000, -1.729932
  0.722000, -1.731136
  0.723000, -1.732488
  0.724000, -1.733840
  0.725000, -1.734902
  0.726000, -1.735965
  0.727000, -1.737109
  0.728000, -1.738254
  0.729000, -1.739714
  0.730000, -1.741174
  0.731000, -1.744289
  0.732000, -1.747404
  0.733000, -1.750197
  0.734000, -1.752990
  0.735000, -1.755788
  0.736000, -1.758585
  0.737000, -1.761963
  0.738000, -1.765342
  0.739000, -1.768455
  0.740000, -1.771569
  0.741000, -1.774414
  0.742000, -1.777259
  0.743000, -1.779054
  0.744000, -1.780848
  0.745000, -1.782895
  0.746000, -1.784941
  0.747000, -1.787039
  0.748000, -1.789136
  0.749000, -1.791551
  0.750000, -1.793965
  0.751000, -1.795539
  0.752000, -1.797113
  0.753000, -1.799130
  0.754000, -1.801147
  0.755000, -1.802950
  0.756000, -1.804753
  0.757000, -1.807211
  0.758000, -1.809670
  0.759000, -1.811365
  0.760000, -1.813059
  0.761000, -1.815136
  0.762000, -1.817213
  0.763000, -1.819330
  0.764000, -1.821447
  0.765000, -1.823685
  0.766000, -1.825922
  0.767000, -1.826625
  0.768000, -1.827328
  0.769000, -1.828276
  0.770000, -1.829224
  0.771000, -1.830572
  0.772000, -1.831921
  0.773000, -1.834078
  0.774000, -1.836234
  0.775000, -1.837057
  0.776000, -1.837879
  0.777000, -1.839573
  0.778000, -1.841268
  0.779000, -1.842920
  0.780000, -1.844573
  0.781000, -1.845797
  0.782000, -1.847020
  0.783000, -1.847321
  0.784000, -1.847621
  0.785000, -1.848466
  0.786000, -1.849312
  0.787000, -1.849520
  0.788000, -1.849729
  0.789000, -1.851184
  0.790000, -1.852639
  0.791000, -1.854352
  0.792000, -1.856066
  0.793000, -1.857306
  0.794000, -1.858547
  0.795000, -1.860067
  0.796000, -1.861587
  0.797000, -1.863237
  0.798000, -1.864888
  0.799000, -1.864988
  0.800000, -1.865087
  0.801000, -1.864825
  0.802000, -1.864562
  0.803000, -1.864677
  0.804000, -1.864791
  0.805000, -1.864289
  0.806000, -1.863786
  0.807000, -1.863234
  0.808000, -1.862682
  0.809000, -1.861627
  0.810000, -1.860572
  0.811000, -1.858646
  0.812000, -1.856720
  0.813000, -1.855083
  0.814000, -1.853446
  0.815000, -1.852216
  0.816000, -1.850986
  0.817000, -1.849005
  0.818000, -1.847024
  0.819000, -1.844826
  0.820000, -1.842627
  0.821000, -1.839998
  0.822000, -1.837368
  0.823000, -1.835383
  0.824000, -1.833398
  0.825000, -1.830220
  0.826000, -1.827041
  0.827000, -1.822832
  0.828000, -1.818624
  0.829000, -1.814623
  0.830000, -1.810622
  0.831000, -1.805975
  0.832000, -1.801329
  0.833000, -1.797639
  0.834000, -1.793949
  0.835000, -1.791065
  0.836000, -1.788181
  0.837000, -1.785576
  0.838000, -1.782971
  0.839000, -1.779961
  0.840000, -1.776951
  0.841000, -1.773684
  0.842000, -1.770418
  0.843000, -1.766869
  0.844000, -1.763320
  0.845000, -1.760576
  0.846000, -1.757832
  0.847000, -1.753559
  0.848000, -1.749287
  0.849000, -1.745056
  0.850000, -1.740826
  0.851000, -1.736317
  0.852000, -1.731809
  0.853000, -1.727478
  0.854000, -1.723148
  0.855000, -1.719240
  0.856000, -1.715333
  0.857000, -1.711379
  0.858000, -1.707426
  0.859000, -1.702261
  0.860000, -1.697096
  0.861000, -1.692412
  0.862000, -1.687727
  0.863000, -1.681826
  0.864000, -1.675925
  0.865000, -1.669663
  0.866000, -1.663401
  0.867000, -1.657885
  0.868000, -1.652369
  0.869000, -1.646275
  0.870000, -1.640180
  0.871000, -1.634557
  0.872000, -1.628934
  0.873000, -1.623017
  0.874000, -1.617100
  0.875000, -1.610955
  0.876000, -1.604811
  0.877000, -1.599289
  0.878000, -1.593768
  0.879000, -1.587992
  0.880000, -1.582217
  0.881000, -1.577119
  0.882000, -1.572020
  0.883000, -1.566490
  0.884000, -1.560959
  0.885000, -1.555382
  0.886000, -1.549805
  0.887000, -1.544793
  0.888000, -1.539782
  0.889000, -1.534881
  0.890000, -1.529981
  0.891000, -1.524216
  0.892000, -1.518452
  0.893000, -1.512319
  0.894000, -1.506185
  0.895000, -1.499373
  0.896000, -1.492560
  0.897000, -1.485613
  0.898000, -1.478666
  0.899000, -1.471805
  0.900000, -1.464945
  0.901000, -1.458515
  0.902000, -1.452086
  0.903000, -1.445771
  0.904000, -1.439455
  0.905000, -1.433102
  0.906000, -1.426749
  0.907000, -1.420685
  0.908000, -1.414620
  0.909000, -1.408586
  0.910000, -1.402552
  0.911000, -1.395260
  0.912000, -1.387968
  0.913000, -1.381031
  0.914000, -1.374095
  0.915000, -1.367081
  0.916000, -1.360067
  0.917000, -1.353282
  0.918000, -1.346498
  0.919000, -1.339255
  0.920000, -1.332013
  0.921000, -1.324581
  0.922000, -1.317149
  0.923000, -1.309606
  0.924000, -1.302062
  0.925000, -1.293795
  0.926000, -1.285529
  0.927000, -1.277746
  0.928000, -1.269964
  0.929000, -1.262885
  0.930000, -1.255805
  0.931000, -1.248472
  0.932000, -1.241139
  0.933000, -1.234055
  0.934000, -1.226971
  0.935000, -1.219724
  0.936000, -1.212477
  0.937000, -1.205439
  0.938000, -1.198401
  0.939000, -1.191040
  0.940000, -1.183679
  0.941000, -1.176799
  0.942000, -1.169919
  0.943000, -1.163381
  0.944000, -1.156842
  0.945000, -1.150845
  0.946000, -1.144847
  0.947000, -1.138886
  0.948000, -1.132924
  0.949000, -1.126889
  0.950000, -1.120854
  0.951000, -1.114432
  0.952000, -1.108010
  0.953000, -1.101401
  0.954000, -1.094793
  0.955000, -1.088975
  0.956000, -1.083156
  0.957000, -1.077395
  0.958000, -1.071633
  0.959000, -1.065904
  0.960000, -1.060175
  0.961000, -1.054465
  0.962000, -1.048756
  0.963000, -1.043203
  0.964000, -1.037651
  0.965000, -1.031350
  0.966000, -1.025049
  0.967000, -1.017918
  0.968000, -1.010788
  0.969000, -1.003014
  0.970000, -0.995239
  0.971000, -0.987189
  0.972000, -0.979139
  0.973000, -0.971301
  0.974000, -0.963464
  0.975000, -0.956254
  0.976000, -0.949044
  0.977000, -0.942656
  0.978000, -0.936268
  0.979000, -0.929398
  0.980000, -0.922528
  0.981000, -0.915503
  0.982000, -0.908478
  0.983000, -0.901796
  0.984000, -0.895114
  0.985000, -0.888651
  0.986000, -0.882188
  0.987000, -0.875782
  0.988000, -0.869376
  0.989000, -0.863657
  0.990000, -0.857938
  0.991000, -0.851879
  0.992000, -0.845821
  0.993000, -0.840310
  0.994000, -0.834799
  0.995000, -0.829487
  0.996000, -0.824175
  0.997000, -0.818873
  0.998000, -0.813572
  0.999000, -0.808271
  1.000000, -0.802969
  1.001000, -0.797016
  1.002000, -0.791062
  1.003000, -0.785819
  1.004000, -0.780577
  1.005000, -0.775724
  1.006000, -0.770872
  1.007000, -0.765930
  1.008000, -0.760988
  1.009000, -0.756045
  1.010000, -0.751102
  1.011000, -0.745930
  1.012000, -0.740759
  1.013000, -0.735625
  1.014000, -0.730491
  1.015000, -0.725763
  1.016000, -0.721036
  1.017000, -0.716714
  1.018000, -0.712391
  1.019000, -0.707822
  1.020000, -0.703252
  1.021000, -0.698518
  1.022000, -0.693784
  1.023000, -0.688302
  1.024000, -0.682820
  1.025000, -0.677705
  1.026000, -0.672590
  1.027000, -0.667194
  1.028000, -0.661799
  1.029000, -0.657250
  1.030000, -0.652700
  1.031000, -0.648128
  1.032000, -0.643555
  1.033000, -0.639292
  1.034000, -0.635030
  1.035000, -0.629905
  1.036000, -0.624781
  1.037000, -0.619785
  1.038000, -0.614790
  1.039000, -0.609748
  1.040000, -0.604706
  1.041000, -0.599399
  1.042000, -0.594093
  1.043000, -0.589445
  1.044000, -0.584798
  1.045000, -0.580600
  1.046000, -0.576403
  1.047000, -0.572587
  1.048000, -0.568771
  1.049000, -0.564441
  1.050000, -0.560110
  1.051000, -0.555902
  1.052000, -0.551694
  1.053000, -0.547646
  1.054000, -0.543597
  1.055000, -0.539886
  1.056000, -0.536174
  1.057000, -0.532793
  1.058000, -0.529411
  1.059000, -0.526266
  1.060000, -0.523121
  1.061000, -0.520232
  1.062000, -0.517344
  1.063000, -0.514251
  1.064000, -0.511159
  1.065000, -0.508595
  1.066000, -0.506032
  1.067000, -0.504119
  1.068000, -0.502206
  1.069000, -0.499974
  1.070000, -0.497742
  1.071000, -0.496592
  1.072000, -0.495441
  1.073000, -0.493809
  1.074000, -0.492178
  1.075000, -0.490262
  1.076000, -0.488346
  1.077000, -0.486114
  1.078000, -0.483882
  1.079000, -0.481813
  1.080000, -0.479744
  1.081000, -0.477303
  1.082000, -0.474862
  1.083000, -0.472367
  1.084000, -0.469872
  1.085000, -0.467885
  1.086000, -0.465899
  1.087000, -0.463481
  1.088000, -0.461064
  1.089000, -0.458757
  1.090000, -0.456451
  1.091000, -0.454509
  1.092000, -0.452568
  1.093000, -0.451056
  1.094000, -0.449544
  1.095000, -0.447554
  1.096000, -0.445564
  1.097000, -0.444376
  1.098000, -0.443188
  1.099000, -0.441944
  1.100000, -0.440700
  1.101000, -0.438281
  1.102000, -0.435862
  1.103000, -0.433728
  1.104000, -0.431594
  1.105000, -0.429426
  1.106000, -0.427258
  1.107000, -0.425613
  1.108000, -0.423969
  1.109000, -0.421835
  1.110000, -0.419701
  1.111000, -0.418304
  1.112000, -0.416907
  1.113000, -0.415563
  1.114000, -0.414218
  1.115000, -0.412765
  1.116000, -0.411311
  1.117000, -0.409163
  1.118000, -0.407014
  1.119000, -0.405193
  1.120000, -0.403371
  1.121000, -0.401463
  1.122000, -0.399554
  1.123000, -0.397643
  1.124000, -0.395732
  1.125000, -0.394862
  1.126000, -0.393991
  1.127000, -0.393268
  1.128000, -0.392544
  1.129000, -0.392013
  1.130000, -0.391482
  1.131000, -0.390842
  1.132000, -0.390202
  1.133000, -0.389395
  1.134000, -0.388587
  1.135000, -0.387279
  1.136000, -0.385970
  1.137000, -0.385498
  1.138000, -0.385026
  1.139000, -0.384525
  1.140000, -0.384025
  1.141000, -0.383703
  1.142000, -0.383381
  1.143000, -0.383103
  1.144000, -0.382826
  1.145000, -0.382352
  1.146000, -0.381879
  1.147000, -0.381025
  1.148000, -0.380171
  1.149000, -0.379861
  1.150000, -0.379551
  1.151000, -0.378465
  1.152000, -0.377379
  1.153000, -0.376892
  1.154000, -0.376404
  1.155000, -0.375366
  1.156000, -0.374327
  1.157000, -0.373829
  1.158000, -0.373332
  1.159000, -0.372411
  1.160000, -0.371490
  1.161000, -0.370024
  1.162000, -0.368558
  1.163000, -0.366951
  1.164000, -0.365343
  1.165000, -0.363343
  1.166000, -0.361343
  1.167000, -0.359639
  1.168000, -0.357935
  1.169000, -0.356975
  1.170000, -0.356014
  1.171000, -0.355155
  1.172000, -0.354295
  1.173000, -0.353699
  1.174000, -0.353102
  1.175000, -0.352525
  1.176000, -0.351947
  1.177000, -0.351188
  1.178000, -0.350430
  1.179000, -0.350405
  1.180000, -0.350381
  1.181000, -0.350204
  1.182000, -0.350027
  1.183000, -0.349917
  1.184000, -0.349808
  1.185000, -0.349315
  1.186000, -0.348822
  1.187000, -0.348510
  1.188000, -0.348199
  1.189000, -0.347747
  1.190000, -0.347294
  1.191000, -0.347424
  1.192000, -0.347553
  1.193000, -0.346863
  1.194000, -0.346174
  1.195000, -0.345430
  1.196000, -0.344686
  1.197000, -0.343157
  1.198000, -0.341628
  1.199000, -0.340160
  1.200000, -0.338691
  1.201000, -0.337439
  1.202000, -0.336188
  1.203000, -0.335498
  1.204000, -0.334808
  1.205000, -0.333796
  1.206000, -0.332784
  1.207000, -0.331990
  1.208000, -0.331197
  1.209000, -0.330189
  1.210000, -0.329181
  1.211000, -0.328417
  1.212000, -0.327653
  1.213000, -0.326920
  1.214000, -0.326186
  1.215000, -0.325535
  1.216000, -0.324883
  1.217000, -0.324050
  1.218000, -0.323216
  1.219000, -0.322221
  1.220000, -0.321226
  1.221000, -0.320502
  1.222000, -0.319778
  1.223000, -0.318916
  1.224000, -0.318054
  1.225000, -0.316928
  1.226000, -0.315801
  1.227000, -0.314383
  1.228000, -0.312966
  1.229000, -0.311143
  1.230000, -0.309321
  1.231000, -0.307333
  1.232000, -0.305346
  1.233000, -0.303564
  1.234000, -0.301782
  1.235000, -0.300255
  1.236000, -0.298728
  1.237000, -0.297345
  1.238000, -0.295961
  1.239000, -0.294674
  1.240000, -0.293387
  1.241000, -0.291898
  1.242000, -0.290409
  1.243000, -0.288784
  1.244000, -0.287160
  1.245000, -0.285237
  1.246000, -0.283315
  1.247000, -0.281269
  1.248000, -0.279224
  1.249000, -0.277530
  1.250000, -0.275837
  1.251000, -0.274843
  1.252000, -0.273850
  1.253000, -0.272935
  1.254000, -0.272020
  1.255000, -0.271079
  1.256000, -0.270139
  1.257000, -0.268497
  1.258000, -0.266856
  1.259000, -0.264826
  1.260000, -0.262797
  1.261000, -0.260459
  1.262000, -0.258121
  1.263000, -0.256374
  1.264000, -0.254627
  1.265000, -0.252780
  1.266000, -0.250933
  1.267000, -0.249164
  1.268000, -0.247395
  1.269000, -0.245535
  1.270000, -0.243674
  1.271000, -0.241548
  1.272000, -0.239421
  1.273000, -0.237235
  1.274000, -0.235048
  1.275000, -0.232694
  1.276000, -0.230339
  1.277000, -0.228474
  1.278000, -0.226610
  1.279000, -0.224986
  1.280000, -0.223363
  1.281000, -0.221894
  1.282000, -0.220424
  1.283000, -0.218766
  1.284000, -0.217108
  1.285000, -0.215092
  1.286000, -0.213076
  1.287000, -0.210939
  1.288000, -0.208803
  1.289000, -0.206969
  1.290000, -0.205135
  1.291000, -0.203802
  1.292000, -0.202468
  1.293000, -0.201110
  1.294000, -0.199751
  1.295000, -0.198282
  1.296000, -0.196814
  1.297000, -0.195233
  1.298000, -0.193651
  1.299000, -0.192091
  1.300000, -0.190531
  1.301000, -0.188779
  1.302000, -0.187028
  1.303000, -0.184873
  1.304000, -0.182719
  1.305000, -0.179955
  1.306000, -0.177192
  1.307000, -0.174875
  1.308000, -0.172558
  1.309000, -0.170370
  1.310000, -0.168181
  1.311000, -0.166356
  1.312000, -0.164531
  1.313000, -0.162526
  1.314000, -0.160521
  1.315000, -0.157700
  1.316000, -0.154879
  1.317000, -0.152499
  1.318000, -0.150120
  1.319000, -0.147618
  1.320000, -0.145117
  1.321000, -0.143061
  1.322000, -0.141006
  1.323000, -0.139018
  1.324000, -0.137029
  1.325000, -0.134990
  1.326000, -0.132951
  1.327000, -0.131252
  1.328000, -0.129554
  1.329000, -0.127953
  1.330000, -0.126353
  1.331000, -0.124929
  1.332000, -0.123506
  1.333000, -0.121384
  1.334000, -0.119262
  1.335000, -0.116993
  1.336000, -0.114725
  1.337000, -0.112605
  1.338000, -0.110484
  1.339000, -0.109114
  1.340000, -0.107743
  1.341000, -0.106506
  1.342000, -0.105269
  1.343000, -0.104272
  1.344000, -0.103275
  1.345000, -0.101836
  1.346000, -0.100398
  1.347000, -0.098763
  1.348000, -0.097128
  1.349000, -0.095796
  1.350000, -0.094463
  1.351000, -0.093315
  1.352000, -0.092167
  1.353000, -0.091127
  1.354000, -0.090087
  1.355000, -0.088931
  1.356000, -0.087775
  1.357000, -0.086019
  1.358000, -0.084263
  1.359000, -0.082466
  1.360000, -0.080669
  1.361000, -0.078775
  1.362000, -0.076882
  1.363000, -0.075216
  1.364000, -0.073550
  1.365000, -0.072201
  1.366000, -0.070853
  1.367000, -0.069364
  1.368000, -0.067875
  1.369000, -0.066358
  1.370000, -0.064842
  1.371000, -0.063162
  1.372000, -0.061483
  1.373000, -0.059601
  1.374000, -0.057718
  1.375000, -0.056053
  1.376000, -0.054387
  1.377000, -0.052970
  1.378000, -0.051554
  1.379000, -0.050299
  1.380000, -0.049044
  1.381000, -0.048161
  1.382000, -0.047278
  1.383000, -0.046141
  1.384000, -0.045003
  1.385000, -0.043885
  1.386000, -0.042767
  1.387000, -0.041235
  1.388000, -0.039704
  1.389000, -0.038261
  1.390000, -0.036818
  1.391000, -0.035341
  1.392000, -0.033864
  1.393000, -0.032453
  1.394000, -0.031042
  1.395000, -0.030127
  1.396000, -0.029213
  1.397000, -0.028359
  1.398000, -0.027504
  1.399000, -0.026648
  1.400000, -0.025792
  1.401000, -0.025057
  1.402000, -0.024323
  1.403000, -0.023382
  1.404000, -0.022440
  1.405000, -0.021715
  1.406000, -0.020990
  1.407000, -0.020308
  1.408000, -0.019626
  1.409000, -0.018914
  1.410000, -0.018202
  1.411000, -0.017369
  1.412000, -0.016536
  1.413000, -0.015646
  1.414000, -0.014756
  1.415000, -0.013835
  1.416000, -0.012913
  1.417000, -0.011797
  1.418000, -0.010680
  1.419000, -0.009706
  1.420000, -0.008731
  1.421000, -0.007716
  1.422000, -0.006700
  1.423000, -0.006010
  1.424000, -0.005319
  1.425000, -0.004713
  1.426000, -0.004106
  1.427000, -0.003575
  1.428000, -0.003044
  1.429000, -0.002749
  1.430000, -0.002454
  1.431000, -0.002425
  1.432000, -0.002395
  1.433000, -0.002567
  1.434000, -0.002740
  1.435000, -0.002902
  1.436000, -0.003064
  1.437000, -0.003011
  1.438000, -0.002959
  1.439000, -0.002813
  1.440000, -0.002667
  1.441000, -0.002383
  1.442000, -0.002098
  1.443000, -0.001745
  1.444000, -0.001392
  1.445000, -0.001246
  1.446000, -0.001100
  1.447000, -0.001113
  1.448000, -0.001126
  1.449000, -0.001261
  1.450000, -0.001396
  1.451000, -0.001369
  1.452000, -0.001342
  1.453000, -0.000872
  1.454000, -0.000402
  1.455000, -0.000122
  1.456000,  0.000159
  1.457000,  0.000354
  1.458000,  0.000549
  1.459000,  0.000486
  1.460000,  0.000424
  1.461000,  0.000191
  1.462000, -0.000042
  1.463000, -0.000208
  1.464000, -0.000374
  1.465000, -0.000438
  1.466000, -0.000502
  1.467000, -0.000427
  1.468000, -0.000351
  1.469000, -0.000073
  1.470000,  0.000206
  1.471000,  0.000447
  1.472000,  0.000687
  1.473000,  0.000719
  1.474000,  0.000751
  1.475000,  0.000805
  1.476000,  0.000858
  1.477000,  0.000925
  1.478000,  0.000992
  1.479000,  0.001047
  1.480000,  0.001102
  1.481000,  0.001185
  1.482000,  0.001269
  1.483000,  0.001147
  1.484000,  0.001026
  1.485000,  0.000971
  1.486000,  0.000915
  1.487000,  0.000837
  1.488000,  0.000760
  1.489000,  0.000693
  1.490000,  0.000627
  1.491000,  0.000557
  1.492000,  0.000488
  1.493000,  0.000380
  1.494000,  0.000272
  1.495000,  0.000191
  1.496000,  0.000110
  1.497000,  0.000055
  1.498000,  0.000000
  1.499000,  0.000000
