
# PMF between COMs of AARG and COLL.
#
#               PMF
# z (nm)   (kJ/mol)   
  0.252  90.125983
  0.255  83.950002
  0.258  78.325604
  0.261  73.209135
  0.264  68.450025
  0.267  63.882560
  0.270  59.470849
  0.273  55.317741
  0.276  51.567209
  0.279  48.275866
  0.282  45.352474
  0.285  42.640482
  0.288  39.977548
  0.291  37.310323
  0.294  34.661125
  0.297  32.118274
  0.300  29.771685
  0.303  27.654820
  0.306  25.783111
  0.309  24.117754
  0.312  22.629754
  0.315  21.274623
  0.318  20.024887
  0.321  18.851328
  0.324  17.732372
  0.327  16.662703
  0.330  15.637193
  0.333  14.662888
  0.336  13.742789
  0.339  12.883442
  0.342  12.093294
  0.345  11.377625
  0.348  10.730303
  0.351  10.147899
  0.354   9.619814
  0.357   9.135493
  0.360   8.682929
  0.363   8.254974
  0.366   7.846229
  0.369   7.454029
  0.372   7.080567
  0.375   6.729067
  0.378   6.393471
  0.381   6.085640
  0.384   5.801051
  0.387   5.544198
  0.390   5.308183
  0.393   5.101744
  0.396   4.934962
  0.399   4.808822
  0.402   4.709892
  0.405   4.635557
  0.408   4.562184
  0.411   4.466431
  0.414   4.330070
  0.417   4.142094
  0.420   3.928463
  0.423   3.706617
  0.426   3.510410
  0.429   3.366394
  0.432   3.283021
  0.435   3.254703
  0.438   3.267025
  0.441   3.301294
  0.444   3.319026
  0.447   3.315346
  0.450   3.284963
  0.453   3.229838
  0.456   3.154689
  0.459   3.075708
  0.462   2.994288
  0.465   2.909783
  0.468   2.824308
  0.471   2.740767
  0.474   2.664824
  0.477   2.603067
  0.480   2.573932
  0.483   2.577145
  0.486   2.597832
  0.489   2.633647
  0.492   2.660507
  0.495   2.671114
  0.498   2.658137
  0.501   2.627377
  0.504   2.586954
  0.507   2.537512
  0.510   2.497229
  0.513   2.462912
  0.516   2.431155
  0.519   2.408704
  0.522   2.387184
  0.525   2.374047
  0.528   2.366575
  0.531   2.372191
  0.534   2.377461
  0.537   2.388032
  0.540   2.393054
  0.543   2.393198
  0.546   2.381213
  0.549   2.357839
  0.552   2.326349
  0.555   2.290907
  0.558   2.262203
  0.561   2.249444
  0.564   2.240335
  0.567   2.238025
  0.570   2.238563
  0.573   2.232511
  0.576   2.220919
  0.579   2.197367
  0.582   2.161954
  0.585   2.121000
  0.588   2.080410
  0.591   2.039758
  0.594   2.010229
  0.597   1.996564
  0.600   2.001908
  0.603   2.020261
  0.606   2.048382
  0.609   2.083537
  0.612   2.119711
  0.615   2.150535
  0.618   2.173005
  0.621   2.179014
  0.624   2.167326
  0.627   2.150213
  0.630   2.129917
  0.633   2.115362
  0.636   2.110382
  0.639   2.122837
  0.642   2.150892
  0.645   2.195595
  0.648   2.245957
  0.651   2.291480
  0.654   2.325797
  0.657   2.348434
  0.660   2.353006
  0.663   2.344710
  0.666   2.321837
  0.669   2.292271
  0.672   2.255208
  0.675   2.209955
  0.678   2.159508
  0.681   2.121056
  0.684   2.077958
  0.687   2.049938
  0.690   2.029058
  0.693   2.019722
  0.696   2.025430
  0.699   2.035181
  0.702   2.058766
  0.705   2.080483
  0.708   2.094160
  0.711   2.102516
  0.714   2.106167
  0.717   2.100465
  0.720   2.088644
  0.723   2.070989
  0.726   2.045368
  0.729   2.014363
  0.732   1.986658
  0.735   1.954220
  0.738   1.927259
  0.741   1.907443
  0.744   1.890629
  0.747   1.871828
  0.750   1.863880
  0.753   1.860560
  0.756   1.859029
  0.759   1.851677
  0.762   1.839513
  0.765   1.819663
  0.768   1.789316
  0.771   1.754507
  0.774   1.707358
  0.777   1.660502
  0.780   1.595145
  0.783   1.533937
  0.786   1.476560
  0.789   1.424535
  0.792   1.380468
  0.795   1.351770
  0.798   1.338169
  0.801   1.339311
  0.804   1.356987
  0.807   1.384730
  0.810   1.408837
  0.813   1.426435
  0.816   1.430401
  0.819   1.419748
  0.822   1.378730
  0.825   1.318852
  0.828   1.239025
  0.831   1.148522
  0.834   1.061145
  0.837   0.985462
  0.840   0.927628
  0.843   0.899734
  0.846   0.893275
  0.849   0.909567
  0.852   0.935628
  0.855   0.965673
  0.858   0.990813
  0.861   1.001529
  0.864   0.995709
  0.867   0.974054
  0.870   0.930131
  0.873   0.876578
  0.876   0.811640
  0.879   0.734405
  0.882   0.657331
  0.885   0.575266
  0.888   0.505062
  0.891   0.439693
  0.894   0.383562
  0.897   0.349330
  0.900   0.328726
  0.903   0.323128
  0.906   0.336918
  0.909   0.357441
  0.912   0.387476
  0.915   0.431135
  0.918   0.467292
  0.921   0.507500
  0.924   0.538237
  0.927   0.566013
  0.930   0.573409
  0.933   0.571890
  0.936   0.552837
  0.939   0.515262
  0.942   0.462743
  0.945   0.399346
  0.948   0.325731
  0.951   0.256803
  0.954   0.197075
  0.957   0.158654
  0.960   0.145117
  0.963   0.162819
  0.966   0.213192
  0.969   0.274146
  0.972   0.345001
  0.975   0.402953
  0.978   0.442943
  0.981   0.457342
  0.984   0.441189
  0.987   0.396456
  0.990   0.335454
  0.993   0.268256
  0.996   0.198455
  0.999   0.144078
  1.002   0.101349
  1.005   0.078786
  1.008   0.074869
  1.011   0.074420
  1.014   0.078975
  1.017   0.085366
  1.020   0.082571
  1.023   0.066715
  1.026   0.039964
  1.029   0.000124
  1.032  -0.054950
  1.035  -0.115024
  1.038  -0.162493
  1.041  -0.185366
  1.044  -0.188395
  1.047  -0.161994
  1.050  -0.111716
  1.053  -0.042926
  1.056   0.032811
  1.059   0.095151
  1.062   0.117396
  1.065   0.086258
  1.068  -0.000280
  1.071  -0.127874
  1.074  -0.279656
  1.077  -0.408504
  1.080  -0.500489
  1.083  -0.533469
  1.086  -0.496206
  1.089  -0.410546
  1.092  -0.298663
  1.095  -0.185994
  1.098  -0.099837
  1.101  -0.052433
  1.104  -0.044132
  1.107  -0.067134
  1.110  -0.113608
  1.113  -0.167004
  1.116  -0.212014
  1.119  -0.243977
  1.122  -0.262595
  1.125  -0.265562
  1.128  -0.254930
  1.131  -0.237162
  1.134  -0.212553
  1.137  -0.180907
  1.140  -0.141179
  1.143  -0.100833
  1.146  -0.051308
  1.149   0.001437
  1.152   0.052835
  1.155   0.104459
  1.158   0.151645
  1.161   0.192488
  1.164   0.222071
  1.167   0.236393
  1.170   0.240762
  1.173   0.232281
  1.176   0.221377
  1.179   0.202724
  1.182   0.177314
  1.185   0.152983
  1.188   0.119693
  1.191   0.090681
  1.194   0.064410
  1.197   0.047208
