
# PMF between COMs of ACYS and NCL.
#
#               PMF
# z (nm)   (kJ/mol)   
  0.252  243.039194
  0.255  236.602221
  0.258  231.228699
  0.261  226.440332
  0.264  221.753932
  0.267  216.998326
  0.270  212.095494
  0.273  206.954698
  0.276  201.534832
  0.279  195.805856
  0.282  189.723464
  0.285  183.268897
  0.288  176.414846
  0.291  169.133771
  0.294  161.407877
  0.297  153.225805
  0.300  144.586845
  0.303  135.510258
  0.306  126.040858
  0.309  116.249759
  0.312  106.263796
  0.315   96.293977
  0.318   86.613226
  0.321   77.491934
  0.324   69.123118
  0.327   61.604222
  0.330   54.963590
  0.333   49.161258
  0.336   44.114704
  0.339   39.709565
  0.342   35.824371
  0.345   32.357840
  0.348   29.252878
  0.351   26.497640
  0.354   24.069255
  0.357   21.926067
  0.360   20.005474
  0.363   18.246860
  0.366   16.621255
  0.369   15.121066
  0.372   13.750629
  0.375   12.510978
  0.378   11.395271
  0.381   10.395663
  0.384    9.494500
  0.387    8.670084
  0.390    7.912554
  0.393    7.217453
  0.396    6.573154
  0.399    5.980292
  0.402    5.444121
  0.405    4.957179
  0.408    4.524374
  0.411    4.147089
  0.414    3.825698
  0.417    3.552556
  0.420    3.330667
  0.423    3.141962
  0.426    2.988544
  0.429    2.862512
  0.432    2.742539
  0.435    2.616984
  0.438    2.480192
  0.441    2.336865
  0.444    2.188200
  0.447    2.036345
  0.450    1.894047
  0.453    1.765933
  0.456    1.646607
  0.459    1.561142
  0.462    1.505769
  0.465    1.474627
  0.468    1.471879
  0.471    1.491413
  0.474    1.520044
  0.477    1.561646
  0.480    1.599461
  0.483    1.635220
  0.486    1.665766
  0.489    1.685163
  0.492    1.687714
  0.495    1.691612
  0.498    1.682741
  0.501    1.679049
  0.504    1.676713
  0.507    1.682618
  0.510    1.701840
  0.513    1.735480
  0.516    1.777500
  0.519    1.831960
  0.522    1.890838
  0.525    1.956738
  0.528    2.023934
  0.531    2.089104
  0.534    2.152590
  0.537    2.209432
  0.540    2.258110
  0.543    2.306797
  0.546    2.357869
  0.549    2.410474
  0.552    2.471655
  0.555    2.536767
  0.558    2.596599
  0.561    2.661002
  0.564    2.713479
  0.567    2.767361
  0.570    2.818535
  0.573    2.864527
  0.576    2.902988
  0.579    2.941997
  0.582    2.973333
  0.585    2.999952
  0.588    3.021518
  0.591    3.036271
  0.594    3.046377
  0.597    3.046827
  0.600    3.042448
  0.603    3.034116
  0.606    3.021097
  0.609    3.006587
  0.612    2.986249
  0.615    2.975522
  0.618    2.977375
  0.621    2.976262
  0.624    2.982786
  0.627    2.993701
  0.630    3.012973
  0.633    3.028035
  0.636    3.041565
  0.639    3.050004
  0.642    3.046380
  0.645    3.038768
  0.648    3.019385
  0.651    2.993326
  0.654    2.958571
  0.657    2.925376
  0.660    2.885036
  0.663    2.844034
  0.666    2.800284
  0.669    2.758186
  0.672    2.717099
  0.675    2.674529
  0.678    2.632890
  0.681    2.590665
  0.684    2.552439
  0.687    2.512012
  0.690    2.478802
  0.693    2.439368
  0.696    2.401629
  0.699    2.363271
  0.702    2.329235
  0.705    2.292528
  0.708    2.257694
  0.711    2.230221
  0.714    2.204407
  0.717    2.180817
  0.720    2.162547
  0.723    2.145184
  0.726    2.118394
  0.729    2.088766
  0.732    2.049580
  0.735    2.007961
  0.738    1.958998
  0.741    1.900203
  0.744    1.832133
  0.747    1.765664
  0.750    1.696453
  0.753    1.623879
  0.756    1.559230
  0.759    1.501125
  0.762    1.451163
  0.765    1.416308
  0.768    1.390357
  0.771    1.373380
  0.774    1.354421
  0.777    1.343282
  0.780    1.329559
  0.783    1.317938
  0.786    1.302061
  0.789    1.281016
  0.792    1.261151
  0.795    1.233258
  0.798    1.208851
  0.801    1.183372
  0.804    1.155996
  0.807    1.128517
  0.810    1.099616
  0.813    1.068401
  0.816    1.042848
  0.819    1.011773
  0.822    0.984312
  0.825    0.955253
  0.828    0.927801
  0.831    0.908712
  0.834    0.890482
  0.837    0.879686
  0.840    0.880053
  0.843    0.881017
  0.846    0.883993
  0.849    0.887097
  0.852    0.892483
  0.855    0.897868
  0.858    0.905419
  0.861    0.914474
  0.864    0.922918
  0.867    0.929901
  0.870    0.938274
  0.873    0.938126
  0.876    0.932176
  0.879    0.925821
  0.882    0.906699
  0.885    0.880926
  0.888    0.858123
  0.891    0.834859
  0.894    0.807915
  0.897    0.786471
  0.900    0.764449
  0.903    0.755431
  0.906    0.746545
  0.909    0.742149
  0.912    0.744906
  0.915    0.758884
  0.918    0.762841
  0.921    0.770026
  0.924    0.776607
  0.927    0.779776
  0.930    0.780118
  0.933    0.780357
  0.936    0.775233
  0.939    0.764604
  0.942    0.752696
  0.945    0.737221
  0.948    0.725844
  0.951    0.714214
  0.954    0.697890
  0.957    0.679250
  0.960    0.667342
  0.963    0.647012
  0.966    0.628729
  0.969    0.612469
  0.972    0.592229
  0.975    0.570844
  0.978    0.547983
  0.981    0.524428
  0.984    0.507015
  0.987    0.491625
  0.990    0.473637
  0.993    0.461542
  0.996    0.447664
  0.999    0.441297
  1.002    0.433303
  1.005    0.433875
  1.008    0.430208
  1.011    0.426755
  1.014    0.417974
  1.017    0.409338
  1.020    0.396821
  1.023    0.382786
  1.026    0.366007
  1.029    0.351067
  1.032    0.332909
  1.035    0.314280
  1.038    0.293940
  1.041    0.275164
  1.044    0.255093
  1.047    0.238286
  1.050    0.221493
  1.053    0.203447
  1.056    0.181824
  1.059    0.158908
  1.062    0.135999
  1.065    0.114575
  1.068    0.087005
  1.071    0.057905
  1.074    0.031697
  1.077   -0.000852
  1.080   -0.034797
  1.083   -0.060887
  1.086   -0.080979
  1.089   -0.096739
  1.092   -0.116366
  1.095   -0.133338
  1.098   -0.141159
  1.101   -0.150721
  1.104   -0.156430
  1.107   -0.158030
  1.110   -0.159139
  1.113   -0.165671
  1.116   -0.166728
  1.119   -0.159735
  1.122   -0.158673
  1.125   -0.150775
  1.128   -0.136344
  1.131   -0.120288
  1.134   -0.093881
  1.137   -0.069768
  1.140   -0.042237
  1.143   -0.008932
  1.146    0.023761
  1.149    0.049543
  1.152    0.066299
  1.155    0.075602
  1.158    0.080951
  1.161    0.081676
  1.164    0.080789
  1.167    0.072069
  1.170    0.061410
  1.173    0.056336
  1.176    0.055427
  1.179    0.063629
  1.182    0.075053
  1.185    0.096296
  1.188    0.117388
  1.191    0.146916
  1.194    0.179602
  1.197    0.207443
